room_temperature(K),298.15
water_volume(mL),500.0
cotton_mass(g),0.0100
combustible_mass(g),1.0000
Nickel_before_mass(g),0.0080
Nickel_after_mass(g),0.0030
time(s),Delta_T(K)
0.112,6.500
0.902,6.500
1.538,6.500
2.320,6.500
2.955,6.500
3.738,6.500
4.379,6.501
5.157,6.500
5.798,6.500
6.578,6.500
7.215,6.501
7.991,6.500
8.638,6.500
9.410,6.500
10.056,6.499
10.838,6.500
11.473,6.500
12.250,6.500
12.903,6.499
13.670,6.500
14.312,6.500
15.100,6.500
15.733,6.500
16.516,6.500
17.161,6.499
17.940,6.500
18.582,6.500
19.364,6.500
20.003,6.500
20.786,6.499
21.423,6.499
22.203,6.499
22.845,6.500
23.613,6.500
24.265,6.500
25.037,6.499
25.679,6.499
26.456,6.499
27.095,6.499
27.878,6.500
28.515,6.500
29.294,6.499
29.934,6.499
30.728,6.500
31.365,6.499
32.148,6.499
32.774,6.499
33.566,6.499
34.196,6.500
34.977,6.499
35.619,6.499
36.406,6.499
37.046,6.499
37.829,6.499
38.466,6.500
39.236,6.499
39.887,6.499
40.668,6.499
41.304,6.499
42.088,6.499
42.728,6.498
43.505,6.499
44.145,6.499
44.927,6.500
45.559,6.499
46.345,6.499
46.988,6.499
47.765,6.499
48.406,6.499
49.182,6.498
49.829,6.499
50.610,6.499
51.245,6.499
52.022,6.499
52.668,6.499
53.445,6.499
54.081,6.500
54.862,6.499
55.499,6.500
56.291,6.500
56.927,6.499
57.713,6.499
58.344,6.499
59.121,6.499
59.771,6.499
60.541,6.499
61.193,6.499
61.970,6.499
62.600,6.500
63.387,6.499
64.023,6.499
64.808,6.499
65.445,6.499
66.221,6.499
66.867,6.499
67.648,6.500
68.279,6.499
69.071,6.499
69.701,6.500
70.488,6.499
71.129,6.499
71.910,6.499
72.541,6.499
73.328,6.499
73.969,6.499
74.750,6.499
75.384,6.499
76.163,6.499
76.811,6.499
77.596,6.499
78.227,6.499
79.010,6.499
79.655,6.499
80.437,6.499
81.064,6.500
81.842,6.499
82.494,6.500
83.278,6.499
83.905,6.499
84.691,6.499
85.329,6.499
86.112,6.499
86.750,6.500
87.528,6.499
88.177,6.499
88.956,6.499
89.594,6.498
90.375,6.499
91.003,6.499
91.797,6.498
92.434,6.499
93.218,6.499
93.855,6.499
94.636,6.499
95.274,6.499
96.046,6.499
96.687,6.500
97.475,6.498
98.115,6.498
98.891,6.499
99.528,6.499
100.319,6.499
100.958,6.499
101.727,6.499
102.369,6.499
103.147,6.500
103.791,6.499
104.580,6.499
105.211,6.499
105.990,6.499
106.633,6.498
107.408,6.499
108.051,6.499
108.832,6.498
109.467,6.499
110.261,6.500
110.902,6.499
111.678,6.499
112.316,6.499
113.099,6.500
113.729,6.499
114.516,6.499
115.163,6.499
115.939,6.499
116.569,6.499
117.357,6.499
117.993,6.499
118.780,6.499
119.410,6.499
120.196,6.499
120.838,6.498
121.622,6.499
122.254,6.499
123.036,6.499
123.680,6.499
124.462,6.499
125.096,6.499
125.881,6.499
126.516,6.499
127.302,6.499
127.942,6.499
128.724,6.499
129.355,6.499
130.139,6.499
130.785,6.499
131.566,6.499
132.198,6.499
132.979,6.500
133.620,6.499
134.407,6.499
135.035,6.499
135.817,6.500
136.463,6.499
137.246,6.499
137.880,6.499
138.654,6.499
139.299,6.499
140.081,6.499
140.727,6.500
141.498,6.500
142.144,6.499
142.920,6.499
143.566,6.500
144.343,6.499
144.976,6.499
145.758,6.499
146.408,6.499
147.174,6.500
147.815,6.500
148.607,6.499
149.243,6.500
150.019,6.500
150.666,6.500
151.436,6.499
152.084,6.499
152.863,6.499
153.505,6.500
154.283,6.499
154.919,6.499
155.697,6.499
156.339,6.499
157.123,6.499
157.762,6.499
158.546,6.499
159.182,6.498
159.967,6.500
160.609,6.499
161.386,6.499
162.024,6.499
162.806,6.499
163.448,6.500
164.227,6.500
164.865,6.499
165.649,6.500
166.285,6.500
167.058,6.499
167.701,6.500
168.477,6.500
169.131,6.499
169.899,6.500
170.541,6.499
171.319,6.499
171.958,6.499
172.742,6.500
173.378,6.499
174.173,6.499
174.813,6.499
175.581,6.500
176.222,6.500
177.000,6.499
177.642,6.499
178.420,6.500
179.059,6.499
179.842,6.499
180.484,6.499
181.264,6.500
181.907,6.500
182.691,6.499
183.328,6.499
184.107,6.499
184.740,6.500
185.532,6.499
186.170,6.499
186.954,6.499
187.581,6.500
188.375,6.500
189.006,6.500
189.786,6.499
190.423,6.500
191.202,6.500
191.844,6.501
192.631,6.501
193.269,6.501
194.058,6.502
194.697,6.504
195.478,6.505
196.105,6.505
196.894,6.507
197.528,6.508
198.312,6.509
198.955,6.510
199.733,6.512
200.370,6.514
201.154,6.517
201.792,6.518
202.572,6.522
203.213,6.524
203.993,6.527
204.631,6.531
205.407,6.536
206.050,6.539
206.829,6.542
207.471,6.544
208.254,6.548
208.892,6.550
209.671,6.554
210.306,6.557
211.101,6.561
211.739,6.564
212.505,6.570
213.148,6.572
213.927,6.577
214.580,6.581
215.347,6.585
215.999,6.589
216.767,6.596
217.418,6.599
218.200,6.608
218.827,6.612
219.618,6.619
220.253,6.622
221.030,6.627
221.676,6.630
222.451,6.639
223.087,6.646
223.878,6.654
224.514,6.659
225.303,6.665
225.939,6.668
226.715,6.673
227.347,6.676
228.133,6.686
228.775,6.689
229.553,6.695
230.190,6.698
230.984,6.703
231.611,6.707
232.405,6.714
233.043,6.719
233.816,6.726
234.458,6.729
235.241,6.735
235.884,6.739
236.655,6.749
237.293,6.755
238.079,6.768
238.721,6.773
239.499,6.780
240.132,6.783
240.917,6.787
241.554,6.789
242.331,6.794
242.980,6.799
243.759,6.806
244.398,6.810
245.178,6.818
245.823,6.821
246.600,6.830
247.237,6.836
248.023,6.846
248.664,6.850
249.435,6.854
250.077,6.856
250.859,6.858
251.505,6.860
252.280,6.863
252.922,6.863
253.703,6.866
254.340,6.869
255.126,6.874
255.767,6.876
256.549,6.881
257.177,6.882
257.955,6.886
258.593,6.888
259.385,6.893
260.024,6.894
260.807,6.898
261.444,6.900
262.217,6.906
262.855,6.909
263.638,6.913
264.280,6.915
265.056,6.918
265.694,6.919
266.482,6.922
267.119,6.923
267.898,6.925
268.535,6.926
269.323,6.928
269.960,6.930
270.739,6.932
271.381,6.934
272.159,6.936
272.797,6.936
273.583,6.938
274.219,6.940
275.011,6.944
275.652,6.944
276.420,6.946
277.063,6.947
277.842,6.949
278.483,6.950
279.262,6.952
279.901,6.952
280.683,6.956
281.320,6.958
282.100,6.962
282.741,6.964
283.524,6.967
284.162,6.968
284.950,6.968
285.592,6.970
286.370,6.971
287.009,6.972
287.792,6.974
288.428,6.975
289.214,6.976
289.852,6.977
290.628,6.979
291.259,6.980
292.053,6.981
292.679,6.981
293.473,6.983
294.111,6.985
294.880,6.987
295.522,6.987
296.300,6.989
296.944,6.990
297.722,6.991
298.375,6.994
299.142,6.996
299.790,6.996
300.569,6.997
301.206,6.998
301.990,7.000
302.627,7.001
303.405,7.002
304.047,7.003
304.836,7.005
305.464,7.005
306.242,7.006
306.885,7.007
307.664,7.008
308.316,7.008
309.088,7.010
309.725,7.011
310.512,7.012
311.152,7.013
311.929,7.015
312.570,7.016
313.357,7.017
313.987,7.017
314.769,7.019
315.412,7.020
316.191,7.021
316.836,7.021
317.613,7.022
318.258,7.024
319.037,7.024
319.663,7.024
320.450,7.026
321.090,7.027
321.873,7.028
322.513,7.029
323.299,7.030
323.935,7.030
324.717,7.031
325.352,7.032
326.128,7.034
326.769,7.034
327.555,7.036
328.196,7.035
328.972,7.038
329.618,7.038
330.389,7.039
331.038,7.039
331.815,7.041
332.456,7.042
333.235,7.043
333.874,7.043
334.656,7.044
335.288,7.045
336.068,7.046
336.710,7.046
337.488,7.048
338.142,7.048
338.910,7.049
339.552,7.049
340.337,7.051
340.975,7.051
341.763,7.053
342.400,7.053
343.183,7.053
343.810,7.054
344.604,7.055
345.241,7.055
346.019,7.057
346.662,7.056
347.439,7.057
348.078,7.058
348.860,7.059
349.501,7.059
350.278,7.060
350.919,7.061
351.699,7.061
352.330,7.062
353.122,7.064
353.752,7.064
354.534,7.065
355.181,7.065
355.961,7.066
356.603,7.067
357.375,7.067
358.015,7.068
358.797,7.068
359.443,7.069
360.225,7.069
360.855,7.070
361.641,7.070
362.272,7.071
363.053,7.072
363.695,7.072
364.482,7.073
365.112,7.074
365.904,7.074
366.535,7.075
367.327,7.076
367.958,7.076
368.736,7.077
369.373,7.077
370.163,7.078
370.800,7.078
371.585,7.080
372.226,7.081
373.005,7.081
373.643,7.081
374.426,7.081
375.054,7.082
375.848,7.083
376.484,7.083
377.257,7.084
377.900,7.083
378.678,7.085
379.326,7.085
380.103,7.086
380.740,7.087
381.521,7.088
382.159,7.088
382.939,7.088
383.575,7.088
384.367,7.089
384.994,7.090
385.780,7.090
386.427,7.091
387.211,7.091
387.838,7.092
388.622,7.093
389.266,7.093
390.042,7.094
390.684,7.094
391.462,7.095
392.105,7.095
392.884,7.095
393.525,7.096
394.304,7.097
394.949,7.098
395.731,7.098
396.368,7.099
397.152,7.098
397.778,7.099
398.557,7.100
399.209,7.099
399.988,7.101
400.630,7.101
401.408,7.102
402.052,7.103
402.819,7.103
403.472,7.103
404.241,7.103
404.884,7.104
405.667,7.104
406.304,7.105
407.089,7.106
407.732,7.106
408.506,7.106
409.144,7.107
409.928,7.107
410.566,7.108
411.344,7.108
411.993,7.109
412.772,7.109
413.409,7.109
414.188,7.111
414.830,7.110
415.605,7.111
416.242,7.111
417.031,7.112
417.669,7.112
418.447,7.112
419.090,7.113
419.869,7.113
420.511,7.114
421.289,7.114
421.924,7.115
422.703,7.115
423.340,7.115
424.124,7.116
424.762,7.116
425.557,7.117
426.183,7.118
426.969,7.117
427.608,7.119
428.386,7.119
429.029,7.118
429.808,7.118
430.446,7.119
431.231,7.120
431.877,7.120
432.653,7.120
433.289,7.121
434.065,7.121
434.712,7.121
435.495,7.121
436.133,7.121
436.909,7.123
437.546,7.123
438.337,7.124
438.976,7.124
439.756,7.124
440.397,7.125
441.180,7.126
441.819,7.125
442.598,7.126
443.224,7.126
444.018,7.127
444.645,7.127
445.431,7.128
446.069,7.128
446.852,7.128
447.494,7.128
448.273,7.129
448.911,7.129
449.695,7.130
450.337,7.130
451.117,7.131
451.752,7.132
452.540,7.131
453.178,7.132
453.946,7.132
454.588,7.132
455.369,7.133
456.007,7.133
456.790,7.133
457.426,7.134
458.221,7.134
458.858,7.134
459.642,7.135
460.278,7.135
461.057,7.136
461.698,7.135
462.475,7.136
463.114,7.137
463.898,7.136
464.534,7.137
465.318,7.138
465.956,7.138
466.739,7.138
467.375,7.138
468.155,7.139
468.794,7.139
469.580,7.140
470.215,7.139
471.000,7.140
471.641,7.140
472.412,7.141
473.063,7.141
473.834,7.141
474.480,7.141
475.265,7.142
475.905,7.142
476.670,7.142
477.317,7.143
478.098,7.143
478.739,7.143
479.520,7.144
480.161,7.143
480.932,7.144
481.578,7.145
482.364,7.145
483.005,7.145
483.771,7.145
484.425,7.145
485.196,7.146
485.837,7.147
486.614,7.147
487.265,7.146
488.042,7.147
488.683,7.148
489.454,7.147
490.094,7.147
490.886,7.148
491.517,7.148
492.303,7.149
492.944,7.149
493.726,7.149
494.361,7.149
495.143,7.150
495.784,7.150
496.564,7.150
497.195,7.150
497.987,7.151
498.617,7.150
499.395,7.151
500.037,7.152
500.819,7.151
501.454,7.152
502.235,7.152
502.886,7.151
503.657,7.153
504.304,7.153
505.084,7.153
505.714,7.153
506.507,7.154
507.142,7.154
507.918,7.154
508.564,7.155
509.335,7.155
509.989,7.154
510.762,7.155
511.398,7.156
512.190,7.155
512.816,7.156
513.605,7.157
514.242,7.156
515.020,7.156
515.662,7.157
516.440,7.158
517.078,7.158
517.862,7.158
518.504,7.158
519.283,7.159
519.917,7.159
520.706,7.158
521.343,7.159
522.122,7.159
522.769,7.159
523.542,7.160
524.181,7.160
524.965,7.160
525.608,7.161
526.386,7.161
527.027,7.161
527.805,7.162
528.448,7.162
529.231,7.161
529.864,7.161
530.652,7.163
531.288,7.163
532.069,7.162
532.704,7.163
533.482,7.163
534.122,7.163
534.904,7.163
535.542,7.163
536.333,7.164
536.968,7.163
537.751,7.164
538.387,7.164
539.162,7.165
539.803,7.164
540.583,7.165
541.229,7.165
542.005,7.165
542.647,7.166
543.423,7.166
544.073,7.166
544.855,7.166
545.490,7.167
546.272,7.167
546.911,7.167
547.693,7.167
548.329,7.167
549.105,7.167
549.746,7.168
550.535,7.168
551.166,7.169
551.942,7.168
552.593,7.169
553.370,7.169
554.014,7.169
554.795,7.169
555.430,7.169
556.207,7.169
556.854,7.170
557.634,7.170
558.270,7.170
559.047,7.169
559.697,7.170
560.466,7.170
561.118,7.170
561.884,7.170
562.524,7.171
563.311,7.172
563.947,7.172
564.733,7.172
565.375,7.172
566.154,7.172
566.797,7.172
567.575,7.172
568.217,7.172
568.991,7.172
569.629,7.173
570.407,7.173
571.051,7.173
571.828,7.173
572.465,7.174
573.249,7.174
573.892,7.174
574.670,7.174
575.320,7.175
576.088,7.174
576.725,7.174
577.509,7.175
578.150,7.175
578.928,7.175
579.566,7.175
580.348,7.176
580.992,7.176
581.770,7.176
582.407,7.176
583.191,7.176
583.829,7.176
584.612,7.177
585.259,7.177
586.038,7.177
586.676,7.178
587.451,7.178
588.098,7.178
588.876,7.179
589.511,7.178
590.297,7.178
590.936,7.178
591.721,7.179
592.358,7.179
593.135,7.179
593.781,7.179
594.560,7.179
595.198,7.179
595.975,7.179
596.616,7.179
597.392,7.179
598.028,7.179
598.810,7.180
599.461,7.179
600.238,7.181
600.879,7.180
601.659,7.180
602.295,7.180
603.072,7.180
603.715,7.181
604.497,7.181
605.131,7.181
605.911,7.181
606.553,7.181
607.335,7.181
607.973,7.182
608.751,7.182
609.392,7.182
610.178,7.182
610.816,7.182
611.599,7.183
612.236,7.183
613.021,7.183
613.663,7.183
614.441,7.182
615.085,7.183
615.864,7.183
616.495,7.183
617.275,7.184
617.914,7.184
618.697,7.183
619.334,7.183
620.117,7.184
620.759,7.184
621.536,7.185
622.174,7.184
622.953,7.184
623.595,7.184
624.388,7.185
625.027,7.185
625.806,7.185
626.443,7.184
627.221,7.185
627.864,7.186
628.643,7.186
629.279,7.186
630.069,7.186
630.698,7.186
631.477,7.186
632.115,7.186
632.899,7.187
633.536,7.186
634.330,7.186
634.957,7.186
635.740,7.187
636.377,7.187
637.162,7.187
637.804,7.188
638.588,7.187
639.225,7.187
640.009,7.187
640.647,7.188
641.425,7.188
642.066,7.188
642.838,7.187
643.485,7.188
644.261,7.188
644.901,7.188
645.685,7.188
646.316,7.190
647.106,7.189
647.751,7.188
648.530,7.188
649.169,7.189
649.947,7.190
650.591,7.190
651.368,7.190
652.011,7.189
652.780,7.190
653.432,7.190
654.200,7.190
654.838,7.190
655.620,7.190
656.262,7.190
657.041,7.191
657.686,7.190
658.469,7.191
659.106,7.191
659.886,7.192
660.526,7.191
661.310,7.190
661.948,7.191
662.728,7.191
663.370,7.191
664.150,7.192
664.787,7.192
665.575,7.192
666.212,7.192
666.991,7.192
667.633,7.192
668.416,7.192
669.054,7.193
669.832,7.192
670.464,7.192
671.248,7.192
671.887,7.194
672.674,7.193
673.315,7.193
674.086,7.193
674.729,7.194
675.509,7.193
676.147,7.194
676.933,7.193
677.573,7.194
678.354,7.194
678.990,7.194
679.776,7.195
680.416,7.195
681.192,7.194
681.836,7.194
682.612,7.194
683.253,7.194
684.029,7.194
684.668,7.195
685.452,7.195
686.086,7.195
686.877,7.194
687.507,7.194
688.294,7.195
688.936,7.195
689.704,7.195
690.350,7.195
691.131,7.195
691.776,7.196
692.558,7.195
693.199,7.196
693.964,7.195
694.621,7.196
695.411,7.196
696.035,7.197
696.817,7.196
697.464,7.196
698.239,7.196
698.879,7.196
699.661,7.196
700.303,7.197
701.084,7.197
701.725,7.198
702.512,7.197
703.152,7.197
703.929,7.197
704.570,7.197
705.339,7.197
705.986,7.198
706.766,7.197
707.406,7.198
708.190,7.198
708.828,7.198
709.611,7.198
710.246,7.198
711.025,7.198
711.663,7.199
712.445,7.198
713.083,7.198
713.861,7.199
714.503,7.199
715.281,7.200
715.919,7.199
716.712,7.199
717.338,7.199
718.133,7.199
718.771,7.199
719.543,7.200
720.180,7.199
720.975,7.199
721.607,7.199
722.390,7.201
723.029,7.200
723.807,7.200
724.453,7.199
725.230,7.200
725.868,7.200
726.651,7.200
727.287,7.200
728.067,7.200
728.709,7.200
729.486,7.200
730.124,7.201
730.903,7.201
731.544,7.200
732.323,7.201
732.961,7.200
733.749,7.201
734.385,7.200
735.164,7.201
735.807,7.201
736.591,7.201
737.228,7.201
738.011,7.201
738.654,7.202
739.432,7.201
740.070,7.201
740.847,7.201
741.489,7.202
742.277,7.201
742.914,7.202
743.696,7.202
744.327,7.202
745.118,7.202
745.748,7.203
746.531,7.201
747.172,7.203
747.953,7.202
748.594,7.202
749.365,7.203
750.006,7.203
750.785,7.203
751.426,7.202
752.219,7.203
752.849,7.202
753.640,7.203
754.275,7.203
755.057,7.203
755.689,7.203
756.466,7.203
757.106,7.203
757.898,7.203
758.529,7.203
759.315,7.204
759.951,7.204
760.738,7.204
761.373,7.204
762.154,7.204
762.795,7.204
763.571,7.203
764.207,7.204
765.004,7.204
765.631,7.205
766.412,7.204
767.047,7.205
767.829,7.204
768.480,7.204
769.261,7.204
769.897,7.205
770.674,7.205
771.309,7.205
772.090,7.205
772.731,7.205
773.517,7.205
774.158,7.205
774.935,7.205
775.582,7.205
776.354,7.205
777.002,7.205
777.779,7.205
778.421,7.206
779.189,7.205
779.843,7.205
780.611,7.206
781.249,7.206
782.043,7.205
782.670,7.205
783.464,7.205
784.092,7.206
784.871,7.206
785.520,7.206
786.298,7.206
786.937,7.206
787.720,7.207
788.357,7.206
789.135,7.206
789.775,7.206
790.554,7.206
791.192,7.206
791.986,7.206
792.613,7.206
793.406,7.206
794.045,7.206
794.813,7.206
795.462,7.207
796.247,7.207
796.874,7.207
797.667,7.207
798.305,7.207
799.083,7.206
799.725,7.207
800.495,7.207
801.139,7.207
801.922,7.207
802.560,7.207
803.342,7.207
803.975,7.208
804.768,7.207
805.402,7.207
806.187,7.207
806.824,7.208
807.607,7.207
808.242,7.207
809.023,7.207
809.659,7.207
810.437,7.208
811.088,7.208
811.854,7.208
812.502,7.208
813.284,7.209
813.919,7.208
814.700,7.208
815.346,7.208
816.127,7.208
816.769,7.208
817.539,7.208
818.185,7.209
818.967,7.208
819.609,7.208
820.385,7.208
821.020,7.208
821.802,7.208
822.444,7.209
823.221,7.208
823.859,7.209
824.651,7.209
825.276,7.209
826.059,7.209
826.700,7.209
827.482,7.209
828.123,7.210
828.899,7.209
829.550,7.208
830.331,7.209
830.956,7.209
831.738,7.210
832.379,7.210
833.171,7.210
833.812,7.210
834.593,7.209
835.223,7.210
836.005,7.210
836.652,7.209
837.428,7.209
838.062,7.210
838.853,7.209
839.488,7.210
840.270,7.210
840.905,7.211
841.681,7.209
842.318,7.210
843.110,7.210
843.740,7.210
844.522,7.210
845.163,7.210
845.944,7.210
846.592,7.210
847.369,7.210
848.010,7.210
848.782,7.210
849.428,7.210
850.204,7.210
850.848,7.211
851.625,7.210
852.261,7.210
853.043,7.211
853.689,7.211
854.462,7.211
855.102,7.210
855.893,7.211
856.530,7.211
857.314,7.211
857.944,7.211
858.725,7.211
859.371,7.211
860.152,7.211
860.782,7.212
861.573,7.211
862.214,7.211
862.990,7.211
863.631,7.211
864.403,7.211
865.043,7.211
865.824,7.212
866.470,7.212
867.257,7.211
867.896,7.212
868.663,7.211
869.305,7.211
870.085,7.211
870.732,7.211
871.515,7.211
872.151,7.212
872.931,7.211
873.571,7.212
874.354,7.212
874.992,7.212
875.771,7.212
876.412,7.212
877.191,7.212
877.829,7.212
878.613,7.212
879.249,7.212
880.027,7.213
880.665,7.213
881.447,7.213
882.086,7.213
882.881,7.212
883.506,7.212
884.300,7.213
884.939,7.213
885.717,7.212
886.358,7.213
887.137,7.212
887.775,7.213
888.558,7.212
889.195,7.214
889.974,7.213
890.617,7.213
891.394,7.213
892.033,7.212
892.811,7.212
893.452,7.213
894.231,7.213
894.871,7.213
895.648,7.213
896.291,7.213
897.070,7.213
897.712,7.213
898.489,7.212
899.142,7.213
899.920,7.213
900.555,7.214
901.332,7.214
901.971,7.213
902.753,7.213
903.390,7.213
904.175,7.214
904.817,7.213
905.603,7.213
906.240,7.213
907.018,7.214
907.662,7.214
908.442,7.213
909.073,7.213
909.859,7.214
910.490,7.213
911.282,7.213
911.922,7.214
912.704,7.214
913.335,7.213
914.116,7.213
914.757,7.214
915.542,7.214
916.175,7.215
916.960,7.213
917.602,7.214
918.379,7.214
919.019,7.214
919.804,7.215
920.441,7.215
921.225,7.214
921.862,7.214
922.645,7.214
923.271,7.214
924.065,7.214
924.703,7.214
925.473,7.214
926.116,7.215
926.895,7.215
927.532,7.214
928.314,7.215
928.951,7.215
929.745,7.214
930.385,7.214
931.163,7.214
931.801,7.214
932.572,7.214
933.215,7.214
933.997,7.215
934.727,7.214
935.421,7.215
936.059,7.215
936.845,7.215
937.486,7.215
938.265,7.215
938.903,7.214
939.681,7.214
940.322,7.214
941.100,7.215
941.737,7.215
942.520,7.215
943.158,7.215
943.943,7.216
944.582,7.215
945.368,7.214
946.007,7.215
946.791,7.215
947.415,7.215
948.202,7.215
948.846,7.215
949.619,7.215
950.255,7.215
951.051,7.215
951.677,7.215
952.471,7.215
953.109,7.215
953.884,7.215
954.530,7.215
955.309,7.215
955.945,7.216
956.728,7.216
957.370,7.215
958.150,7.215
958.781,7.216
959.561,7.215
960.198,7.215
960.977,7.216
961.624,7.216
962.402,7.216
963.045,7.216
963.828,7.215
964.471,7.216
965.251,7.216
965.882,7.216
966.661,7.216
967.304,7.216
968.087,7.215
968.725,7.216
969.502,7.216
970.140,7.216
970.929,7.217
971.567,7.216
972.351,7.216
972.979,7.217
973.764,7.216
974.400,7.216
975.184,7.216
975.821,7.215
976.606,7.216
977.243,7.216
978.032,7.216
978.670,7.216
979.454,7.216
980.081,7.216
980.866,7.216
981.508,7.216
982.289,7.216
982.924,7.216
983.711,7.217
984.347,7.216
985.123,7.216
985.762,7.216
986.549,7.217
987.180,7.217
987.963,7.216
988.604,7.216
989.397,7.217
990.021,7.217
990.804,7.216
991.450,7.216
992.225,7.217
992.862,7.216
993.653,7.217
994.292,7.216
995.070,7.217
995.709,7.217
996.491,7.217
997.129,7.216
997.909,7.217
998.551,7.217
999.329,7.217
999.968,7.218
1000.745,7.217
1001.386,7.217
1002.165,7.217
1002.808,7.217
1003.591,7.218
1004.228,7.217
1005.007,7.217
1005.658,7.217
1006.424,7.217
1007.063,7.217
1007.854,7.217
1008.486,7.217
1009.272,7.217
1009.911,7.216
1010.693,7.217
1011.331,7.216
1012.110,7.217
1012.752,7.217
1013.536,7.216
1014.174,7.216
1014.952,7.218
1015.587,7.217
1016.380,7.218
1017.019,7.218
1017.790,7.217
1018.437,7.217
1019.206,7.217
1019.848,7.218
1020.632,7.217
1021.270,7.217
1022.049,7.217
1022.691,7.217
1023.469,7.217
1024.111,7.216
1024.895,7.217
1025.525,7.218
1026.319,7.217
1026.952,7.217
1027.730,7.218
1028.373,7.218
1029.152,7.218
1029.794,7.217
1030.577,7.218
1031.214,7.217
1031.999,7.218
1032.632,7.218
1033.415,7.218
1034.058,7.218
1034.837,7.218
1035.467,7.217
1036.261,7.218
1036.888,7.218
1037.683,7.219
1038.309,7.218
1039.093,7.217
1039.731,7.218
1040.514,7.217
1041.156,7.218
1041.935,7.218
1042.573,7.218
1043.355,7.218
1043.995,7.218
1044.775,7.217
1045.415,7.218
1046.199,7.218
1046.841,7.218
1047.620,7.217
1048.261,7.218
1049.045,7.218
1049.673,7.219
1050.465,7.218
1051.103,7.218
1051.873,7.218
1052.524,7.219
1053.306,7.218
1053.930,7.218
1054.714,7.218
1055.356,7.217
1056.135,7.219
1056.777,7.219
1057.561,7.219
1058.197,7.219
1058.977,7.219
1059.624,7.219
1060.401,7.219
1061.039,7.218
1061.817,7.218
1062.464,7.218
1063.243,7.219
1063.871,7.219
1064.664,7.219
1065.307,7.219
1066.076,7.218
1066.718,7.219
1067.495,7.218
1068.146,7.219
1068.923,7.218
1069.567,7.218
1070.339,7.218
1070.986,7.218
1071.762,7.219
1072.406,7.218
1073.184,7.218
1073.823,7.218
1074.607,7.218
1075.247,7.219
1076.029,7.219
1076.659,7.219
1077.437,7.219
1078.074,7.218
1078.860,7.218
1079.506,7.219
1080.287,7.219
1080.922,7.218
1081.705,7.219
1082.335,7.219
1083.127,7.218
1083.763,7.219
1084.536,7.219
1085.177,7.219
1085.958,7.218
1086.600,7.219
1087.377,7.219
1088.017,7.220
1088.798,7.219
1089.445,7.218
1090.227,7.219
1090.858,7.219
1091.650,7.219
1092.280,7.219
1093.061,7.219
1093.702,7.219
1094.488,7.219
1095.129,7.219
1095.900,7.219
1096.547,7.219
1097.331,7.219
1097.967,7.219
1098.749,7.219
1099.384,7.219
1100.161,7.219
1100.810,7.218
1101.589,7.219
1102.230,7.219
1103.002,7.219
1103.644,7.219
1104.430,7.219
1105.069,7.219
