room_temperature(K),298.150 
water_volume(mL),500.000 
cotton_mass(g),0.010 
combustible_mass(g),1.000 
Nickel_before_mass(g),0.008 
Nickel_after_mass(g),0.003 
time(s),Delta_T(K)
0.79,0.000 
1.426,0.000 
2.208,0.000 
2.843,0.000 
3.626,0.000 
4.267,0.001 
5.045,0.000 
5.686,0.000 
6.466,0.000 
7.103,0.001 
7.879,0.000 
8.526,0.000 
9.298,0.000 
9.944,-0.001 
10.726,0.000 
11.361,0.000 
12.138,0.000 
12.791,-0.001 
13.558,0.000 
14.2,0.000 
14.988,0.000 
15.621,0.000 
16.404,0.000 
17.049,-0.001 
17.828,0.000 
18.47,0.000 
19.252,0.000 
19.891,0.000 
20.674,-0.001 
21.311,-0.001 
22.091,-0.001 
22.733,0.000 
23.501,0.000 
24.153,0.000 
24.925,-0.001 
25.567,-0.001 
26.344,-0.001 
26.983,-0.001 
27.766,0.000 
28.403,0.000 
29.182,-0.001 
29.822,-0.001 
30.616,0.000 
31.253,-0.001 
32.036,-0.001 
32.662,-0.001 
33.454,-0.001 
34.084,0.000 
34.865,-0.001 
35.507,-0.001 
36.294,-0.001 
36.934,-0.001 
37.717,-0.001 
38.354,0.000 
39.124,-0.001 
39.775,-0.001 
40.556,-0.001 
41.192,-0.001 
41.976,-0.001 
42.616,-0.002 
43.393,-0.001 
44.033,-0.001 
44.815,0.000 
45.447,-0.001 
46.233,-0.001 
46.876,-0.001 
47.653,-0.001 
48.294,-0.001 
49.07,-0.002 
49.717,-0.001 
50.498,-0.001 
51.133,-0.001 
51.91,-0.001 
52.556,-0.001 
53.333,-0.001 
53.969,0.000 
54.75,-0.001 
55.387,0.000 
56.179,0.000 
56.815,-0.001 
57.601,-0.001 
58.232,-0.001 
59.009,-0.001 
59.659,-0.001 
60.429,-0.001 
61.081,-0.001 
61.858,-0.001 
62.488,0.000 
63.275,-0.001 
63.911,-0.001 
64.696,-0.001 
65.333,-0.001 
66.109,-0.001 
66.755,-0.001 
67.536,0.000 
68.167,-0.001 
68.959,-0.001 
69.589,0.000 
70.376,-0.001 
71.017,-0.001 
71.798,-0.001 
72.429,-0.001 
73.216,-0.001 
73.857,-0.001 
74.638,-0.001 
75.272,-0.001 
76.051,-0.001 
76.699,-0.001 
77.484,-0.001 
78.115,-0.001 
78.898,-0.001 
79.543,-0.001 
80.325,-0.001 
80.952,0.000 
81.73,-0.001 
82.382,0.000 
83.166,-0.001 
83.793,-0.001 
84.579,-0.001 
85.217,-0.001 
86,-0.001 
86.638,0.000 
87.416,-0.001 
88.065,-0.001 
88.844,-0.001 
89.482,-0.002 
90.263,-0.001 
90.891,-0.001 
91.685,-0.002 
92.322,-0.001 
93.106,-0.001 
93.743,-0.001 
94.524,-0.001 
95.162,-0.001 
95.934,-0.001 
96.575,0.000 
97.363,-0.002 
98.003,-0.002 
98.779,-0.001 
99.416,-0.001 
100.207,-0.001 
100.846,-0.001 
101.615,-0.001 
102.257,-0.001 
103.035,0.000 
103.679,-0.001 
104.468,-0.001 
105.099,-0.001 
105.878,-0.001 
106.521,-0.002 
107.296,-0.001 
107.939,-0.001 
108.72,-0.002 
109.355,-0.001 
110.149,0.000 
110.79,-0.001 
111.566,-0.001 
112.204,-0.001 
112.987,0.000 
113.617,-0.001 
114.404,-0.001 
115.051,-0.001 
115.827,-0.001 
116.457,-0.001 
117.245,-0.001 
117.881,-0.001 
118.668,-0.001 
119.298,-0.001 
120.084,-0.001 
120.726,-0.002 
121.51,-0.001 
122.142,-0.001 
122.924,-0.001 
123.568,-0.001 
124.35,-0.001 
124.984,-0.001 
125.769,-0.001 
126.404,-0.001 
127.19,-0.001 
127.83,-0.001 
128.612,-0.001 
129.243,-0.001 
130.027,-0.001 
130.673,-0.001 
131.454,-0.001 
132.086,-0.001 
132.867,0.000 
133.508,-0.001 
134.295,-0.001 
134.923,-0.001 
135.705,0.000 
136.351,-0.001 
137.134,-0.001 
137.768,-0.001 
138.542,-0.001 
139.187,-0.001 
139.969,-0.001 
140.615,0.000 
141.386,0.000 
142.032,-0.001 
142.808,-0.001 
143.454,0.000 
144.231,-0.001 
144.864,-0.001 
145.646,-0.001 
146.296,-0.001 
147.062,0.000 
147.703,0.000 
148.495,-0.001 
149.131,0.000 
149.907,0.000 
150.554,0.000 
151.324,-0.001 
151.972,-0.001 
152.751,-0.001 
153.393,0.000 
154.171,-0.001 
154.807,-0.001 
155.585,-0.001 
156.227,-0.001 
157.011,-0.001 
157.65,-0.001 
158.434,-0.001 
159.07,-0.002 
159.855,0.000 
160.497,-0.001 
161.274,-0.001 
161.912,-0.001 
162.694,-0.001 
163.336,0.000 
164.115,0.000 
164.753,-0.001 
165.537,0.000 
166.173,0.000 
166.946,-0.001 
167.589,0.000 
168.365,0.000 
169.019,-0.001 
169.787,0.000 
170.429,-0.001 
171.207,-0.001 
171.846,-0.001 
172.63,0.000 
173.266,-0.001 
174.061,-0.001 
174.701,-0.001 
175.469,0.000 
176.11,0.000 
176.888,-0.001 
177.53,-0.001 
178.308,0.000 
178.947,-0.001 
179.73,-0.001 
180.372,-0.001 
181.152,0.000 
181.795,0.000 
182.579,-0.001 
183.216,-0.001 
183.995,-0.001 
184.628,0.000 
185.42,-0.001 
186.058,-0.001 
186.842,-0.001 
187.469,0.000 
188.263,0.000 
188.894,0.000 
189.674,-0.001 
190.311,0.000 
191.09,0.000 
191.732,0.001 
192.519,0.001 
193.157,0.002 
193.946,0.003 
194.585,0.007 
195.366,0.008 
195.993,0.008 
196.782,0.012 
197.416,0.013 
198.2,0.015 
198.843,0.017 
199.621,0.020 
200.258,0.023 
201.042,0.028 
201.68,0.030 
202.46,0.037 
203.101,0.040 
203.881,0.045 
204.519,0.052 
205.295,0.060 
205.938,0.065 
206.717,0.070 
207.359,0.073 
208.142,0.080 
208.78,0.084 
209.559,0.090 
210.194,0.095 
210.989,0.102 
211.627,0.107 
212.393,0.117 
213.036,0.120 
213.815,0.129 
214.468,0.135 
215.235,0.142 
215.887,0.149 
216.655,0.160 
217.306,0.165 
218.088,0.180 
218.715,0.187 
219.506,0.199 
220.141,0.204 
220.918,0.212 
221.564,0.217 
222.339,0.232 
222.975,0.244 
223.766,0.257 
224.402,0.266 
225.191,0.276 
225.827,0.281 
226.603,0.289 
227.235,0.294 
228.021,0.311 
228.663,0.316 
229.441,0.326 
230.078,0.331 
230.872,0.339 
231.499,0.346 
232.293,0.357 
232.931,0.366 
233.704,0.377 
234.346,0.382 
235.129,0.392 
235.772,0.399 
236.543,0.416 
237.181,0.426 
237.967,0.448 
238.609,0.456 
239.387,0.468 
240.02,0.473 
240.805,0.479 
241.442,0.483 
242.219,0.491 
242.868,0.499 
243.647,0.511 
244.286,0.518 
245.066,0.531 
245.711,0.536 
246.488,0.551 
247.125,0.561 
247.911,0.578 
248.552,0.585 
249.323,0.591 
249.965,0.595 
250.747,0.598 
251.393,0.601 
252.168,0.606 
252.81,0.606 
253.591,0.611 
254.228,0.616 
255.014,0.625 
255.655,0.628 
256.437,0.636 
257.065,0.638 
257.843,0.645 
258.481,0.648 
259.273,0.656 
259.912,0.658 
260.695,0.665 
261.332,0.668 
262.105,0.678 
262.743,0.683 
263.526,0.690 
264.168,0.693 
264.944,0.698 
265.582,0.700 
266.37,0.705 
267.007,0.706 
267.786,0.710 
268.423,0.711 
269.211,0.715 
269.848,0.718 
270.627,0.721 
271.269,0.725 
272.047,0.728 
272.685,0.728 
273.471,0.731 
274.107,0.735 
274.899,0.741 
275.54,0.741 
276.308,0.745 
276.951,0.746 
277.73,0.750 
278.371,0.752 
279.15,0.755 
279.789,0.755 
280.571,0.762 
281.208,0.765 
281.988,0.772 
282.629,0.775 
283.412,0.780 
284.05,0.782 
284.838,0.782 
285.48,0.785 
286.258,0.787 
286.897,0.788 
287.68,0.792 
288.316,0.793 
289.102,0.795 
289.74,0.797 
290.516,0.800 
291.147,0.802 
291.941,0.803 
292.567,0.803 
293.361,0.807 
293.999,0.810 
294.768,0.813 
295.41,0.813 
296.188,0.817 
296.832,0.818 
297.61,0.820 
298.263,0.825 
299.03,0.828 
299.678,0.828 
300.457,0.830 
301.094,0.832 
301.878,0.835 
302.515,0.837 
303.293,0.838 
303.935,0.840 
304.724,0.843 
305.352,0.843 
306.13,0.845 
306.773,0.847 
307.552,0.848 
308.204,0.848 
308.976,0.852 
309.613,0.853 
310.4,0.855 
311.04,0.857 
311.817,0.860 
312.458,0.862 
313.245,0.863 
313.875,0.863 
314.657,0.867 
315.3,0.868 
316.079,0.870 
316.724,0.870 
317.501,0.872 
318.146,0.875 
318.925,0.875 
319.551,0.875 
320.338,0.878 
320.978,0.880 
321.761,0.882 
322.401,0.883 
323.187,0.885 
323.823,0.885 
324.605,0.887 
325.24,0.888 
326.016,0.892 
326.657,0.892 
327.443,0.895 
328.084,0.893 
328.86,0.898 
329.506,0.898 
330.277,0.900 
330.926,0.900 
331.703,0.903 
332.344,0.905 
333.123,0.907 
333.762,0.907 
334.544,0.908 
335.176,0.910 
335.956,0.912 
336.598,0.912 
337.376,0.915 
338.03,0.915 
338.798,0.917 
339.44,0.917 
340.225,0.920 
340.863,0.920 
341.651,0.924 
342.288,0.924 
343.071,0.924 
343.698,0.925 
344.492,0.927 
345.129,0.927 
345.907,0.930 
346.55,0.929 
347.327,0.930 
347.966,0.932 
348.748,0.934 
349.389,0.934 
350.166,0.935 
350.807,0.937 
351.587,0.937 
352.218,0.939 
353.01,0.942 
353.64,0.942 
354.422,0.944 
355.069,0.944 
355.849,0.945 
356.491,0.947 
357.263,0.947 
357.903,0.949 
358.685,0.949 
359.331,0.950 
360.113,0.950 
360.743,0.952 
361.529,0.952 
362.16,0.954 
362.941,0.955 
363.583,0.955 
364.37,0.957 
365,0.959 
365.792,0.959 
366.423,0.960 
367.215,0.962 
367.846,0.962 
368.624,0.964 
369.261,0.964 
370.051,0.965 
370.688,0.965 
371.473,0.969 
372.114,0.970 
372.893,0.970 
373.531,0.970 
374.314,0.970 
374.942,0.972 
375.736,0.974 
376.372,0.974 
377.145,0.975 
377.788,0.974 
378.566,0.977 
379.214,0.977 
379.991,0.979 
380.628,0.980 
381.409,0.982 
382.047,0.982 
382.827,0.982 
383.463,0.982 
384.255,0.984 
384.882,0.985 
385.668,0.985 
386.315,0.987 
387.099,0.987 
387.726,0.989 
388.51,0.990 
389.154,0.990 
389.93,0.992 
390.572,0.992 
391.35,0.994 
391.993,0.994 
392.772,0.994 
393.413,0.995 
394.192,0.997 
394.837,0.999 
395.619,0.999 
396.256,1.000 
397.04,0.999 
397.666,1.000 
398.445,1.002 
399.097,1.000 
399.876,1.004 
400.518,1.004 
401.296,1.005 
401.94,1.007 
402.707,1.007 
403.36,1.007 
404.129,1.007 
404.772,1.009 
405.555,1.009 
406.192,1.010 
406.977,1.012 
407.62,1.012 
408.394,1.012 
409.032,1.014 
409.816,1.014 
410.454,1.015 
411.232,1.015 
411.881,1.017 
412.66,1.017 
413.297,1.017 
414.076,1.020 
414.718,1.019 
415.493,1.020 
416.13,1.020 
416.919,1.022 
417.557,1.022 
418.335,1.022 
418.978,1.024 
419.757,1.024 
420.399,1.025 
421.177,1.025 
421.812,1.027 
422.591,1.027 
423.228,1.027 
424.012,1.029 
424.65,1.029 
425.445,1.030 
426.071,1.032 
426.857,1.030 
427.496,1.034 
428.274,1.034 
428.917,1.032 
429.696,1.032 
430.334,1.034 
431.119,1.035 
431.765,1.035 
432.541,1.035 
433.177,1.037 
433.953,1.037 
434.6,1.037 
435.383,1.037 
436.021,1.037 
436.797,1.040 
437.434,1.040 
438.225,1.042 
438.864,1.042 
439.644,1.042 
440.285,1.044 
441.068,1.045 
441.707,1.044 
442.486,1.045 
443.112,1.045 
443.906,1.047 
444.533,1.047 
445.319,1.049 
445.957,1.049 
446.74,1.049 
447.382,1.049 
448.161,1.050 
448.799,1.050 
449.583,1.052 
450.225,1.052 
451.005,1.054 
451.64,1.055 
452.428,1.054 
453.066,1.055 
453.834,1.055 
454.476,1.055 
455.257,1.057 
455.895,1.057 
456.678,1.057 
457.314,1.059 
458.109,1.059 
458.746,1.059 
459.53,1.060 
460.166,1.060 
460.945,1.062 
461.586,1.060 
462.363,1.062 
463.002,1.064 
463.786,1.062 
464.422,1.064 
465.206,1.065 
465.844,1.065 
466.627,1.065 
467.263,1.065 
468.043,1.067 
468.682,1.067 
469.468,1.069 
470.103,1.067 
470.888,1.069 
471.529,1.069 
472.3,1.070 
472.951,1.070 
473.722,1.070 
474.368,1.070 
475.153,1.072 
475.793,1.072 
476.558,1.072 
477.205,1.074 
477.986,1.074 
478.627,1.074 
479.408,1.075 
480.049,1.074 
480.82,1.075 
481.466,1.077 
482.252,1.077 
482.893,1.077 
483.659,1.077 
484.313,1.077 
485.084,1.079 
485.725,1.080 
486.502,1.080 
487.153,1.079 
487.93,1.080 
488.571,1.082 
489.342,1.080 
489.982,1.080 
490.774,1.082 
491.405,1.082 
492.191,1.084 
492.832,1.084 
493.614,1.084 
494.249,1.084 
495.031,1.086 
495.672,1.086 
496.452,1.086 
497.083,1.086 
497.875,1.087 
498.505,1.086 
499.283,1.087 
499.925,1.089 
500.707,1.087 
501.342,1.089 
502.123,1.089 
502.774,1.087 
503.545,1.091 
504.192,1.091 
504.972,1.091 
505.602,1.091 
506.395,1.092 
507.03,1.092 
507.806,1.092 
508.452,1.094 
509.223,1.094 
509.877,1.092 
510.65,1.094 
511.286,1.096 
512.078,1.094 
512.704,1.096 
513.493,1.097 
514.13,1.096 
514.908,1.096 
515.55,1.097 
516.328,1.099 
516.966,1.099 
517.75,1.099 
518.392,1.099 
519.171,1.101 
519.805,1.101 
520.594,1.099 
521.231,1.101 
522.01,1.101 
522.657,1.101 
523.43,1.102 
524.069,1.102 
524.853,1.102 
525.496,1.104 
526.274,1.104 
526.915,1.104 
527.693,1.106 
528.336,1.106 
529.119,1.104 
529.752,1.104 
530.54,1.107 
531.176,1.107 
531.957,1.106 
532.592,1.107 
533.37,1.107 
534.01,1.107 
534.792,1.107 
535.43,1.107 
536.221,1.109 
536.856,1.107 
537.639,1.109 
538.275,1.109 
539.05,1.111 
539.691,1.109 
540.471,1.111 
541.117,1.111 
541.893,1.111 
542.535,1.112 
543.311,1.112 
543.961,1.112 
544.743,1.112 
545.378,1.114 
546.16,1.114 
546.799,1.114 
547.581,1.114 
548.217,1.114 
548.993,1.114 
549.634,1.116 
550.423,1.116 
551.054,1.117 
551.83,1.116 
552.481,1.117 
553.258,1.117 
553.902,1.117 
554.683,1.117 
555.318,1.117 
556.095,1.117 
556.742,1.119 
557.522,1.119 
558.158,1.119 
558.935,1.117 
559.585,1.119 
560.354,1.119 
561.006,1.119 
561.772,1.119 
562.412,1.121 
563.199,1.122 
563.835,1.122 
564.621,1.122 
565.263,1.122 
566.042,1.122 
566.685,1.122 
567.463,1.122 
568.105,1.122 
568.879,1.122 
569.517,1.124 
570.295,1.124 
570.939,1.124 
571.716,1.124 
572.353,1.126 
573.137,1.126 
573.78,1.126 
574.558,1.126 
575.208,1.127 
575.976,1.126 
576.613,1.126 
577.397,1.127 
578.038,1.127 
578.816,1.127 
579.454,1.127 
580.236,1.129 
580.88,1.129 
581.658,1.129 
582.295,1.129 
583.079,1.129 
583.717,1.129 
584.5,1.131 
585.147,1.131 
585.926,1.131 
586.564,1.132 
587.339,1.132 
587.986,1.132 
588.764,1.134 
589.399,1.132 
590.185,1.132 
590.824,1.132 
591.609,1.134 
592.246,1.134 
593.023,1.134 
593.669,1.134 
594.448,1.134 
595.086,1.134 
595.863,1.134 
596.504,1.134 
597.28,1.134 
597.916,1.134 
598.698,1.136 
599.349,1.134 
600.126,1.137 
600.767,1.136 
601.547,1.136 
602.183,1.136 
602.96,1.136 
603.603,1.137 
604.385,1.137 
605.019,1.137 
605.799,1.137 
606.441,1.137 
607.223,1.137 
607.861,1.139 
608.639,1.139 
609.28,1.139 
610.066,1.139 
610.704,1.139 
611.487,1.141 
612.124,1.141 
612.909,1.141 
613.551,1.141 
614.329,1.139 
614.973,1.141 
615.752,1.141 
616.383,1.141 
617.163,1.142 
617.802,1.142 
618.585,1.141 
619.222,1.141 
620.005,1.142 
620.647,1.142 
621.424,1.144 
622.062,1.142 
622.841,1.142 
623.483,1.142 
624.276,1.144 
624.915,1.144 
625.694,1.144 
626.331,1.142 
627.109,1.144 
627.752,1.146 
628.531,1.146 
629.167,1.146 
629.957,1.146 
630.586,1.146 
631.365,1.146 
632.003,1.146 
632.787,1.147 
633.424,1.146 
634.218,1.146 
634.845,1.146 
635.628,1.147 
636.265,1.147 
637.05,1.147 
637.692,1.149 
638.476,1.147 
639.113,1.147 
639.897,1.147 
640.535,1.149 
641.313,1.149 
641.954,1.149 
642.726,1.147 
643.373,1.149 
644.149,1.149 
644.789,1.149 
645.573,1.149 
646.204,1.152 
646.994,1.151 
647.639,1.149 
648.418,1.149 
649.057,1.151 
649.835,1.152 
650.479,1.152 
651.256,1.152 
651.899,1.151 
652.668,1.152 
653.32,1.152 
654.088,1.152 
654.726,1.152 
655.508,1.152 
656.15,1.152 
656.929,1.154 
657.574,1.152 
658.357,1.154 
658.994,1.154 
659.774,1.156 
660.414,1.154 
661.198,1.152 
661.836,1.154 
662.616,1.154 
663.258,1.154 
664.038,1.156 
664.675,1.156 
665.463,1.156 
666.1,1.156 
666.879,1.156 
667.521,1.156 
668.304,1.156 
668.942,1.157 
669.72,1.156 
670.352,1.156 
671.136,1.156 
671.775,1.159 
672.562,1.157 
673.203,1.157 
673.974,1.157 
674.617,1.159 
675.397,1.157 
676.035,1.159 
676.821,1.157 
677.461,1.159 
678.242,1.159 
678.878,1.159 
679.664,1.161 
680.304,1.161 
681.08,1.159 
681.724,1.159 
682.5,1.159 
683.141,1.159 
683.917,1.159 
684.556,1.161 
685.34,1.161 
685.974,1.161 
686.765,1.159 
687.395,1.159 
688.182,1.161 
688.824,1.161 
689.592,1.161 
690.238,1.161 
691.019,1.161 
691.664,1.162 
692.446,1.161 
693.087,1.162 
693.852,1.161 
694.509,1.162 
695.299,1.162 
695.923,1.164 
696.705,1.162 
697.352,1.162 
698.127,1.162 
698.767,1.162 
699.549,1.162 
700.191,1.164 
700.972,1.164 
701.613,1.166 
702.4,1.164 
703.04,1.164 
703.817,1.164 
704.458,1.164 
705.227,1.164 
705.874,1.166 
706.654,1.164 
707.294,1.166 
708.078,1.166 
708.716,1.166 
709.499,1.166 
710.134,1.166 
710.913,1.166 
711.551,1.167 
712.333,1.166 
712.971,1.166 
713.749,1.167 
714.391,1.167 
715.169,1.169 
715.807,1.167 
716.6,1.167 
717.226,1.167 
718.021,1.167 
718.659,1.167 
719.431,1.169 
720.068,1.167 
720.863,1.167 
721.495,1.167 
722.278,1.171 
722.917,1.169 
723.695,1.169 
724.341,1.167 
725.118,1.169 
725.756,1.169 
726.539,1.169 
727.175,1.169 
727.955,1.169 
728.597,1.169 
729.374,1.169 
730.012,1.171 
730.791,1.171 
731.432,1.169 
732.211,1.171 
732.849,1.169 
733.637,1.171 
734.273,1.169 
735.052,1.171 
735.695,1.171 
736.479,1.171 
737.116,1.171 
737.899,1.171 
738.542,1.172 
739.32,1.171 
739.958,1.171 
740.735,1.171 
741.377,1.172 
742.165,1.171 
742.802,1.172 
743.584,1.172 
744.215,1.172 
745.006,1.172 
745.636,1.174 
746.419,1.171 
747.06,1.174 
747.841,1.172 
748.482,1.172 
749.253,1.174 
749.894,1.174 
750.673,1.174 
751.314,1.172 
752.107,1.174 
752.737,1.172 
753.528,1.174 
754.163,1.174 
754.945,1.174 
755.577,1.174 
756.354,1.174 
756.994,1.174 
757.786,1.174 
758.417,1.174 
759.203,1.176 
759.839,1.176 
760.626,1.176 
761.261,1.176 
762.042,1.176 
762.683,1.176 
763.459,1.174 
764.095,1.176 
764.892,1.176 
765.519,1.177 
766.3,1.176 
766.935,1.177 
767.717,1.176 
768.368,1.176 
769.149,1.176 
769.785,1.177 
770.562,1.177 
771.197,1.177 
771.978,1.177 
772.619,1.177 
773.405,1.177 
774.046,1.177 
774.823,1.177 
775.47,1.177 
776.242,1.177 
776.89,1.177 
777.667,1.177 
778.309,1.179 
779.077,1.177 
779.731,1.177 
780.499,1.179 
781.137,1.179 
781.931,1.177 
782.558,1.177 
783.352,1.177 
783.98,1.179 
784.759,1.179 
785.408,1.179 
786.186,1.179 
786.825,1.179 
787.608,1.181 
788.245,1.179 
789.023,1.179 
789.663,1.179 
790.442,1.179 
791.08,1.179 
791.874,1.179 
792.501,1.179 
793.294,1.179 
793.933,1.179 
794.701,1.179 
795.35,1.181 
796.135,1.181 
796.762,1.181 
797.555,1.181 
798.193,1.181 
798.971,1.179 
799.613,1.181 
800.383,1.181 
801.027,1.181 
801.81,1.181 
802.448,1.181 
803.23,1.181 
803.863,1.182 
804.656,1.181 
805.29,1.181 
806.075,1.181 
806.712,1.182 
807.495,1.181 
808.13,1.181 
808.911,1.181 
809.547,1.181 
810.325,1.182 
810.976,1.182 
811.742,1.182 
812.39,1.182 
813.172,1.184 
813.807,1.182 
814.588,1.182 
815.234,1.182 
816.015,1.182 
816.657,1.182 
817.427,1.182 
818.073,1.184 
818.855,1.182 
819.497,1.182 
820.273,1.182 
820.908,1.182 
821.69,1.182 
822.332,1.184 
823.109,1.182 
823.747,1.184 
824.539,1.184 
825.164,1.184 
825.947,1.184 
826.588,1.184 
827.37,1.184 
828.011,1.186 
828.787,1.184 
829.438,1.182 
830.219,1.184 
830.844,1.184 
831.626,1.186 
832.267,1.186 
833.059,1.186 
833.7,1.186 
834.481,1.184 
835.111,1.186 
835.893,1.186 
836.54,1.184 
837.316,1.184 
837.95,1.186 
838.741,1.184 
839.376,1.186 
840.158,1.186 
840.793,1.187 
841.569,1.184 
842.206,1.186 
842.998,1.186 
843.628,1.186 
844.41,1.186 
845.051,1.186 
845.832,1.186 
846.48,1.186 
847.257,1.186 
847.898,1.186 
848.67,1.186 
849.316,1.186 
850.092,1.186 
850.736,1.187 
851.513,1.186 
852.149,1.186 
852.931,1.187 
853.577,1.187 
854.35,1.187 
854.99,1.186 
855.781,1.187 
856.418,1.187 
857.202,1.187 
857.832,1.187 
858.613,1.187 
859.259,1.187 
860.04,1.187 
860.67,1.189 
861.461,1.187 
862.102,1.187 
862.878,1.187 
863.519,1.187 
864.291,1.187 
864.931,1.187 
865.712,1.189 
866.358,1.189 
867.145,1.187 
867.784,1.189 
868.551,1.187 
869.193,1.187 
869.973,1.187 
870.62,1.187 
871.403,1.187 
872.039,1.189 
872.819,1.187 
873.459,1.189 
874.242,1.189 
874.88,1.189 
875.659,1.189 
876.3,1.189 
877.079,1.189 
877.717,1.189 
878.501,1.189 
879.137,1.189 
879.915,1.191 
880.553,1.191 
881.335,1.191 
881.974,1.191 
882.769,1.189 
883.394,1.189 
884.188,1.191 
884.827,1.191 
885.605,1.189 
886.246,1.191 
887.025,1.189 
887.663,1.191 
888.446,1.189 
889.083,1.192 
889.862,1.191 
890.505,1.191 
891.282,1.191 
891.921,1.189 
892.699,1.189 
893.34,1.191 
894.119,1.191 
894.759,1.191 
895.536,1.191 
896.179,1.191 
896.958,1.191 
897.6,1.191 
898.377,1.189 
899.03,1.191 
899.808,1.191 
900.443,1.192 
901.22,1.192 
901.859,1.191 
902.641,1.191 
903.278,1.191 
904.063,1.192 
904.705,1.191 
905.491,1.191 
906.128,1.191 
906.906,1.192 
907.55,1.192 
908.33,1.191 
908.961,1.191 
909.747,1.192 
910.378,1.191 
911.17,1.191 
911.81,1.192 
912.592,1.192 
913.223,1.191 
914.004,1.191 
914.645,1.192 
915.43,1.192 
916.063,1.194 
916.848,1.191 
917.49,1.192 
918.267,1.192 
918.907,1.192 
919.692,1.194 
920.329,1.194 
921.113,1.192 
921.75,1.192 
922.533,1.192 
923.159,1.192 
923.953,1.192 
924.591,1.192 
925.361,1.192 
926.004,1.194 
926.783,1.194 
927.42,1.192 
928.202,1.194 
928.839,1.194 
929.633,1.192 
930.273,1.192 
931.051,1.192 
931.689,1.192 
932.46,1.192 
933.103,1.192 
933.885,1.194 
934.615,1.192 
935.309,1.194 
935.947,1.194 
936.733,1.194 
937.374,1.194 
938.153,1.194 
938.791,1.192 
939.569,1.192 
940.21,1.192 
940.988,1.194 
941.625,1.194 
942.408,1.194 
943.046,1.194 
943.831,1.196 
944.47,1.194 
945.256,1.192 
945.895,1.194 
946.679,1.194 
947.303,1.194 
948.09,1.194 
948.734,1.194 
949.507,1.194 
950.143,1.194 
950.939,1.194 
951.565,1.194 
952.359,1.194 
952.997,1.194 
953.772,1.194 
954.418,1.194 
955.197,1.194 
955.833,1.196 
956.616,1.196 
957.258,1.194 
958.038,1.194 
958.669,1.196 
959.449,1.194 
960.086,1.194 
960.865,1.196 
961.512,1.196 
962.29,1.196 
962.933,1.196 
963.716,1.194 
964.359,1.196 
965.139,1.196 
965.77,1.196 
966.549,1.196 
967.192,1.196 
967.975,1.194 
968.613,1.196 
969.39,1.196 
970.028,1.196 
970.817,1.197 
971.455,1.196 
972.239,1.196 
972.867,1.197 
973.652,1.196 
974.288,1.196 
975.072,1.196 
975.709,1.194 
976.494,1.196 
977.131,1.196 
977.92,1.196 
978.558,1.196 
979.342,1.196 
979.969,1.196 
980.754,1.196 
981.396,1.196 
982.177,1.196 
982.812,1.196 
983.599,1.197 
984.235,1.196 
985.011,1.196 
985.65,1.196 
986.437,1.197 
987.068,1.197 
987.851,1.196 
988.492,1.196 
989.285,1.197 
989.909,1.197 
990.692,1.196 
991.338,1.196 
992.113,1.197 
992.75,1.196 
993.541,1.197 
994.18,1.196 
994.958,1.197 
995.597,1.197 
996.379,1.197 
997.017,1.196 
997.797,1.197 
998.439,1.197 
999.217,1.197 
999.856,1.199 
1000.633,1.197 
1001.274,1.197 
1002.053,1.197 
1002.696,1.197 
1003.479,1.199 
1004.116,1.197 
1004.895,1.197 
1005.546,1.197 
1006.312,1.197 
1006.951,1.197 
1007.742,1.197 
1008.374,1.197 
1009.16,1.197 
1009.799,1.196 
1010.581,1.197 
1011.219,1.196 
1011.998,1.197 
1012.64,1.197 
1013.424,1.196 
1014.062,1.196 
1014.84,1.199 
1015.475,1.197 
1016.268,1.199 
1016.907,1.199 
1017.678,1.197 
1018.325,1.197 
1019.094,1.197 
1019.736,1.199 
1020.52,1.197 
1021.158,1.197 
1021.937,1.197 
1022.579,1.197 
1023.357,1.197 
1023.999,1.196 
1024.783,1.197 
1025.413,1.199 
1026.207,1.197 
1026.84,1.197 
1027.618,1.199 
1028.261,1.199 
1029.04,1.199 
1029.682,1.197 
1030.465,1.199 
1031.102,1.197 
1031.887,1.199 
1032.52,1.199 
1033.303,1.199 
1033.946,1.199 
1034.725,1.199 
1035.355,1.197 
1036.149,1.199 
1036.776,1.199 
1037.571,1.201 
1038.197,1.199 
1038.981,1.197 
1039.619,1.199 
1040.402,1.197 
1041.044,1.199 
1041.823,1.199 
1042.461,1.199 
1043.243,1.199 
1043.883,1.199 
1044.663,1.197 
1045.303,1.199 
1046.087,1.199 
1046.729,1.199 
1047.508,1.197 
1048.149,1.199 
1048.933,1.199 
1049.561,1.201 
1050.353,1.199 
1050.991,1.199 
1051.761,1.199 
1052.412,1.201 
1053.194,1.199 
1053.818,1.199 
1054.602,1.199 
1055.244,1.197 
1056.023,1.201 
1056.665,1.201 
1057.449,1.201 
1058.085,1.201 
1058.865,1.201 
1059.512,1.201 
1060.289,1.201 
1060.927,1.199 
1061.705,1.199 
1062.352,1.199 
1063.131,1.201 
1063.759,1.201 
1064.552,1.201 
1065.195,1.201 
1065.964,1.199 
1066.606,1.201 
1067.383,1.199 
1068.034,1.201 
1068.811,1.199 
1069.455,1.199 
1070.227,1.199 
1070.874,1.199 
1071.65,1.201 
1072.294,1.199 
1073.072,1.199 
1073.711,1.199 
1074.495,1.199 
1075.135,1.201 
1075.917,1.201 
1076.547,1.201 
1077.325,1.201 
1077.962,1.199 
1078.748,1.199 
1079.394,1.201 
1080.175,1.201 
1080.81,1.199 
1081.593,1.201 
1082.223,1.201 
1083.015,1.199 
1083.651,1.201 
1084.424,1.201 
1085.065,1.201 
1085.846,1.199 
1086.488,1.201 
1087.265,1.201 
1087.905,1.202 
1088.686,1.201 
1089.333,1.199 
1090.115,1.201 
1090.746,1.201 
1091.538,1.201 
1092.168,1.201 
1092.949,1.201 
1093.59,1.201 
1094.376,1.201 
1095.017,1.201 
1095.788,1.201 
1096.435,1.201 
1097.219,1.201 
1097.855,1.201 
1098.637,1.201 
1099.272,1.201 
1100.049,1.201 
1100.698,1.199 
1101.477,1.201 
1102.118,1.201 
1102.89,1.201 
1103.532,1.201 
1104.318,1.201 
1104.957,1.201 
