room_temperature(K),298.15
water_volume(mL),500.0
cotton_mass(g),0.0100
combustible_mass(g),1.0000
Nickel_before_mass(g),0.0080
Nickel_after_mass(g),0.0030
time(s),Delta_T(K)
0.783,-0.001
1.421,0.000
2.198,-0.001
2.840,-0.001
3.618,0.000
4.255,0.000
5.038,0.000
5.677,0.000
6.455,-0.001
7.096,-0.001
7.879,-0.001
8.518,-0.001
9.296,0.000
9.935,-0.001
10.719,-0.001
11.357,-0.001
12.145,0.000
12.782,0.000
13.569,0.000
14.208,0.000
14.982,0.000
15.625,-0.001
16.401,0.000
17.051,0.000
17.828,-0.001
18.464,0.000
19.245,-0.001
19.891,0.000
20.661,0.000
21.313,0.000
22.085,0.000
22.726,0.000
23.508,0.000
24.153,0.000
24.935,0.000
25.563,0.001
26.349,0.000
26.995,0.000
27.771,0.000
28.402,0.000
29.194,0.000
29.824,0.000
30.611,0.001
31.251,0.000
32.023,0.000
32.663,0.001
33.444,0.000
34.175,0.001
34.869,0.000
35.509,0.000
36.295,0.000
36.927,0.000
37.708,0.001
38.349,0.000
39.131,0.001
39.770,0.001
40.559,0.001
41.199,0.001
41.971,0.000
42.612,0.001
43.400,0.001
44.030,0.001
44.818,0.001
45.457,0.000
46.237,0.001
46.876,0.001
47.658,0.001
48.295,0.000
49.077,0.001
49.720,0.000
50.504,0.000
51.142,0.000
51.911,0.001
52.554,0.000
53.333,0.001
53.974,0.001
54.759,0.001
55.396,0.001
56.174,0.001
56.822,0.000
57.600,0.001
58.236,0.001
59.028,0.000
59.666,0.001
60.445,0.001
61.072,0.001
61.857,0.000
62.495,0.000
63.289,0.000
63.914,0.000
64.709,0.001
65.347,0.000
66.120,0.000
66.758,0.000
67.538,0.001
68.180,0.001
68.957,0.001
69.602,0.001
70.380,0.001
71.022,0.001
71.802,0.001
72.439,0.000
73.219,0.001
73.871,0.001
74.639,0.001
75.281,0.001
76.060,0.001
76.704,0.001
77.487,0.001
78.128,0.001
78.906,0.000
79.545,0.001
80.327,0.001
80.968,0.001
81.752,0.001
82.394,0.001
83.173,0.001
83.810,0.001
84.589,0.000
85.231,0.001
86.010,0.001
86.648,0.001
87.431,0.001
88.067,0.001
88.846,0.001
89.489,0.001
90.267,0.001
90.910,0.001
91.689,0.000
92.331,0.000
93.109,0.001
93.753,0.001
94.536,0.002
95.173,0.002
95.955,0.001
96.599,0.001
97.377,0.002
98.015,0.002
98.802,0.001
99.432,0.001
100.209,0.001
100.855,0.002
101.638,0.001
102.279,0.002
103.050,0.001
103.691,0.002
104.483,0.001
105.119,0.001
105.900,0.002
106.541,0.002
107.323,0.002
107.961,0.002
108.745,-0.002
109.383,0.001
110.151,0.001
110.801,0.001
111.581,0.001
112.218,0.001
113.006,0.001
113.643,0.002
114.422,0.001
115.064,0.001
115.843,0.002
116.480,0.002
117.258,0.001
117.895,0.002
118.674,0.002
119.328,0.001
120.094,0.001
120.739,0.002
121.519,0.002
122.161,0.002
122.938,0.002
123.581,0.001
124.360,0.002
125.001,0.001
125.781,0.001
126.427,0.001
127.203,0.002
127.849,0.002
128.630,0.002
129.260,0.001
130.046,0.002
130.683,0.002
131.464,0.002
132.099,0.002
132.891,0.002
133.521,0.002
134.307,0.002
134.953,0.002
135.727,0.002
136.372,0.001
137.145,0.002
137.792,0.002
138.574,0.002
139.214,0.002
139.986,0.002
140.634,0.001
141.404,0.001
142.051,0.002
142.827,0.002
143.472,0.001
144.248,0.002
144.895,0.002
145.670,0.002
146.311,0.002
147.098,0.002
147.727,0.001
148.505,0.002
149.151,0.002
149.932,0.001
150.573,0.003
151.354,0.001
151.985,0.001
152.766,0.002
153.408,0.002
154.200,0.002
154.835,0.003
155.621,0.002
156.247,0.001
157.034,0.002
157.674,0.002
158.456,0.002
159.102,0.002
159.883,0.002
160.514,0.003
161.301,0.002
161.936,0.002
162.713,0.002
163.359,0.002
164.145,0.002
164.770,0.002
165.562,0.002
166.203,0.002
166.980,0.002
167.619,0.002
168.397,0.002
169.038,0.001
169.817,0.002
170.455,0.002
171.239,0.002
171.875,0.002
172.654,0.003
173.296,0.002
174.089,0.002
174.726,0.001
175.505,0.003
176.147,0.002
176.925,0.002
177.563,0.002
178.346,0.002
178.983,0.001
179.762,0.002
180.405,0.002
181.190,0.002
181.826,0.002
182.610,0.002
183.237,0.003
184.030,0.003
184.668,0.002
185.450,0.003
186.086,0.003
186.866,0.002
187.510,0.002
188.287,0.002
188.928,0.002
189.711,0.002
190.345,0.002
191.124,0.002
191.765,0.002
192.548,0.003
193.188,0.003
193.972,0.003
194.604,0.002
195.388,0.002
196.024,0.003
196.811,0.003
197.454,0.002
198.223,0.002
198.861,0.002
199.649,0.003
200.287,0.003
201.062,0.002
201.705,0.003
202.484,0.003
203.136,0.003
203.914,0.002
204.561,0.002
205.326,0.002
205.963,0.003
206.747,0.002
207.388,0.003
208.168,0.003
208.810,0.003
209.593,0.002
210.232,0.003
211.015,0.002
211.649,0.003
212.427,0.003
213.080,0.003
213.847,0.002
214.487,0.003
215.271,0.003
215.907,0.003
216.702,0.002
217.340,0.003
218.122,0.003
218.748,0.003
219.543,0.003
220.182,0.003
220.955,0.003
221.600,0.002
222.378,0.002
223.020,0.003
223.799,0.003
224.444,0.003
225.222,0.003
225.864,0.004
226.643,0.004
227.285,0.004
228.067,0.006
228.705,0.007
229.484,0.010
230.126,0.012
230.902,0.016
231.546,0.018
232.327,0.024
232.952,0.027
233.747,0.036
234.377,0.040
235.164,0.050
235.797,0.056
236.576,0.066
237.219,0.071
237.996,0.082
238.634,0.087
239.427,0.101
240.069,0.107
240.836,0.121
241.489,0.128
242.262,0.144
242.899,0.151
243.688,0.172
244.330,0.184
245.108,0.204
245.745,0.214
246.529,0.236
247.172,0.247
247.939,0.268
248.593,0.280
249.361,0.308
250.013,0.321
250.792,0.347
251.419,0.361
252.214,0.394
252.855,0.410
253.626,0.438
254.269,0.455
255.047,0.489
255.685,0.507
256.473,0.541
257.110,0.556
257.888,0.583
258.532,0.595
259.310,0.626
259.947,0.643
260.731,0.680
261.363,0.697
262.147,0.734
262.784,0.750
263.567,0.777
264.210,0.790
264.988,0.815
265.628,0.827
266.411,0.849
267.049,0.862
267.832,0.888
268.470,0.900
269.248,0.920
269.900,0.930
270.690,0.955
271.329,0.966
272.107,0.984
272.749,0.994
273.519,1.012
274.161,1.024
274.949,1.049
275.580,1.063
276.375,1.089
277.011,1.100
277.794,1.116
278.432,1.125
279.211,1.141
279.848,1.148
280.629,1.168
281.271,1.180
282.053,1.202
282.686,1.210
283.471,1.227
284.112,1.236
284.890,1.250
285.528,1.256
286.306,1.267
286.947,1.273
287.725,1.290
288.368,1.299
289.157,1.322
289.793,1.335
290.577,1.354
291.219,1.359
291.996,1.371
292.635,1.379
293.412,1.392
294.055,1.400
294.834,1.413
295.468,1.418
296.251,1.426
296.893,1.429
297.672,1.436
298.314,1.439
299.096,1.448
299.734,1.453
300.509,1.463
301.152,1.467
301.930,1.472
302.575,1.476
303.362,1.484
303.989,1.488
304.785,1.499
305.412,1.503
306.205,1.512
306.832,1.515
307.617,1.521
308.258,1.523
309.043,1.531
309.672,1.535
310.459,1.543
311.101,1.547
311.880,1.556
312.524,1.561
313.308,1.567
313.945,1.570
314.729,1.575
315.356,1.577
316.134,1.585
316.787,1.589
317.555,1.595
318.209,1.598
318.986,1.602
319.618,1.604
320.397,1.606
321.042,1.607
321.821,1.614
322.463,1.617
323.242,1.625
323.879,1.630
324.668,1.636
325.306,1.637
326.090,1.641
326.717,1.644
327.511,1.649
328.138,1.651
328.931,1.657
329.565,1.661
330.345,1.666
330.989,1.667
331.773,1.669
332.411,1.672
333.190,1.677
333.832,1.678
334.610,1.681
335.248,1.684
336.025,1.687
336.672,1.689
337.450,1.695
338.087,1.697
338.871,1.702
339.510,1.705
340.288,1.709
340.926,1.711
341.710,1.714
342.348,1.716
343.126,1.719
343.768,1.722
344.547,1.724
345.184,1.726
345.972,1.729
346.614,1.731
347.393,1.736
348.034,1.738
348.813,1.742
349.449,1.744
350.227,1.746
350.878,1.747
351.657,1.749
352.295,1.751
353.077,1.754
353.708,1.756
354.500,1.759
355.135,1.760
355.911,1.761
356.549,1.761
357.330,1.764
357.970,1.766
358.763,1.770
359.389,1.772
360.185,1.774
360.822,1.775
361.603,1.779
362.238,1.779
363.026,1.782
363.661,1.783
364.432,1.786
365.078,1.787
365.860,1.790
366.505,1.791
367.286,1.795
367.917,1.796
368.696,1.800
369.338,1.800
370.118,1.803
370.754,1.804
371.543,1.806
372.180,1.808
372.957,1.811
373.606,1.812
374.380,1.814
375.023,1.815
375.809,1.817
376.435,1.818
377.216,1.821
377.863,1.822
378.649,1.825
379.290,1.826
380.062,1.828
380.702,1.829
381.482,1.831
382.129,1.832
382.910,1.835
383.551,1.836
384.332,1.839
384.963,1.840
385.753,1.842
386.379,1.843
387.171,1.845
387.806,1.846
388.582,1.847
389.223,1.848
390.010,1.850
390.641,1.852
391.424,1.853
392.070,1.855
392.850,1.856
393.486,1.857
394.267,1.858
394.908,1.860
395.690,1.862
396.326,1.863
397.102,1.864
397.753,1.865
398.531,1.866
399.174,1.867
399.946,1.869
400.591,1.870
401.368,1.872
402.010,1.873
402.788,1.874
403.426,1.876
404.210,1.878
404.846,1.879
405.630,1.880
406.267,1.881
407.059,1.883
407.698,1.883
408.476,1.884
409.118,1.885
409.897,1.887
410.535,1.887
411.319,1.890
411.956,1.890
412.735,1.892
413.378,1.892
414.156,1.893
414.793,1.893
415.572,1.896
416.222,1.897
417.000,1.899
417.639,1.899
418.421,1.900
419.058,1.901
419.837,1.903
420.479,1.904
421.263,1.905
421.900,1.906
422.678,1.907
423.320,1.908
424.097,1.909
424.736,1.910
425.520,1.911
426.165,1.912
426.937,1.914
427.583,1.914
428.364,1.916
428.995,1.916
429.787,1.917
430.412,1.917
431.194,1.920
431.841,1.920
432.622,1.922
433.254,1.922
434.040,1.924
434.686,1.925
435.467,1.926
436.098,1.927
436.889,1.928
437.530,1.928
438.296,1.930
438.947,1.930
439.729,1.932
440.370,1.933
441.142,1.933
441.787,1.934
442.563,1.935
443.204,1.936
443.986,1.936
444.631,1.937
445.414,1.938
446.055,1.939
446.835,1.940
447.477,1.941
448.253,1.942
448.894,1.942
449.685,1.943
450.327,1.943
451.104,1.943
451.744,1.944
452.521,1.945
453.167,1.945
453.938,1.947
454.573,1.947
455.354,1.948
456.000,1.949
456.782,1.950
457.423,1.950
458.204,1.951
458.835,1.952
459.627,1.953
460.258,1.954
461.045,1.955
461.686,1.956
462.467,1.956
463.102,1.957
463.878,1.957
464.530,1.958
465.300,1.959
465.941,1.961
466.718,1.961
467.364,1.961
468.151,1.962
468.792,1.963
469.568,1.964
470.198,1.964
470.985,1.965
471.621,1.965
472.407,1.966
473.054,1.967
473.830,1.967
474.460,1.968
475.252,1.969
475.895,1.969
476.661,1.970
477.313,1.971
478.091,1.971
478.729,1.971
479.513,1.972
480.151,1.973
480.935,1.974
481.562,1.974
482.358,1.976
482.995,1.975
483.778,1.976
484.416,1.977
485.195,1.978
485.831,1.977
486.605,1.978
487.258,1.978
488.035,1.979
488.678,1.979
489.456,1.981
490.100,1.980
490.871,1.983
491.514,1.982
492.298,1.983
492.934,1.983
493.718,1.984
494.352,1.984
495.133,1.985
495.779,1.985
496.553,1.986
497.195,1.986
497.970,1.987
498.623,1.987
499.393,1.988
500.029,1.988
500.811,1.989
501.452,1.989
502.233,1.990
502.884,1.991
503.660,1.991
504.301,1.992
505.078,1.992
505.723,1.993
506.496,1.992
507.131,1.993
507.912,1.994
508.564,1.995
509.333,1.995
509.985,1.996
510.767,1.997
511.393,1.997
512.173,1.997
512.819,1.997
513.601,1.998
514.242,1.999
515.020,2.000
515.657,2.000
516.438,2.000
517.088,2.000
517.865,2.000
518.506,2.001
519.276,2.002
519.924,2.002
520.707,2.003
521.335,2.003
522.123,2.003
522.764,2.004
523.545,2.005
524.185,2.005
524.972,2.006
525.597,2.007
526.384,2.006
527.030,2.007
527.807,2.007
528.437,2.007
529.229,2.008
529.861,2.008
530.646,2.008
531.288,2.009
532.075,2.010
532.707,2.009
533.483,2.010
534.129,2.011
534.910,2.012
535.550,2.012
536.332,2.012
536.963,2.012
537.744,2.013
538.386,2.013
539.162,2.014
539.813,2.014
540.594,2.015
541.235,2.014
542.006,2.015
542.647,2.015
543.429,2.016
544.075,2.016
544.856,2.016
545.492,2.017
546.274,2.017
546.910,2.017
547.690,2.018
548.329,2.018
549.106,2.019
549.749,2.018
550.529,2.019
551.171,2.019
551.950,2.020
552.589,2.020
553.367,2.021
554.009,2.021
554.796,2.021
555.433,2.021
556.218,2.022
556.859,2.021
557.638,2.021
558.276,2.022
559.058,2.022
559.702,2.023
560.480,2.024
561.110,2.024
561.895,2.024
562.536,2.025
563.319,2.025
563.955,2.024
564.734,2.025
565.372,2.025
566.160,2.027
566.798,2.026
567.577,2.027
568.224,2.027
569.002,2.027
569.642,2.027
570.417,2.028
571.064,2.028
571.846,2.028
572.487,2.029
573.257,2.029
573.903,2.029
574.679,2.029
575.325,2.029
576.097,2.030
576.734,2.031
577.515,2.031
578.161,2.031
578.943,2.032
579.583,2.032
580.365,2.032
580.996,2.031
581.777,2.032
582.423,2.032
583.199,2.032
583.845,2.032
584.627,2.033
585.268,2.033
586.045,2.033
586.690,2.033
587.471,2.034
588.102,2.034
588.894,2.034
589.518,2.035
590.300,2.035
590.949,2.035
591.729,2.036
592.370,2.036
593.152,2.036
593.782,2.036
594.574,2.036
595.200,2.036
595.987,2.037
596.621,2.038
597.403,2.038
598.048,2.038
598.829,2.038
599.471,2.038
600.243,2.038
600.895,2.038
601.674,2.038
602.312,2.039
603.094,2.040
603.732,2.039
604.511,2.040
605.153,2.040
605.930,2.040
606.568,2.041
607.345,2.040
607.987,2.041
608.766,2.041
609.404,2.041
610.185,2.041
610.838,2.041
611.606,2.042
612.248,2.042
613.031,2.042
613.675,2.042
614.460,2.042
615.094,2.043
615.881,2.043
616.521,2.043
617.302,2.043
617.929,2.043
618.721,2.044
619.351,2.044
620.132,2.044
620.773,2.044
621.550,2.045
622.196,2.044
622.983,2.045
623.624,2.045
624.391,2.046
625.042,2.045
625.819,2.045
626.465,2.046
627.237,2.046
627.875,2.046
628.652,2.046
629.297,2.046
630.085,2.047
630.721,2.047
631.493,2.048
632.140,2.047
632.922,2.048
633.552,2.048
634.338,2.047
634.976,2.047
635.758,2.049
636.404,2.048
637.180,2.048
637.826,2.049
638.608,2.048
639.234,2.048
640.022,2.049
640.662,2.049
641.444,2.049
642.075,2.049
642.871,2.049
643.507,2.049
644.288,2.050
644.919,2.049
645.701,2.050
646.350,2.050
647.131,2.050
647.761,2.050
648.542,2.051
649.184,2.051
649.966,2.051
650.602,2.051
651.383,2.051
652.018,2.051
652.810,2.051
653.451,2.051
654.232,2.052
654.873,2.052
655.643,2.052
656.287,2.052
657.065,2.051
657.703,2.052
658.481,2.052
659.123,2.053
659.916,2.053
660.545,2.053
661.324,2.053
661.965,2.053
662.750,2.052
663.388,2.053
664.171,2.053
664.808,2.054
665.587,2.055
666.230,2.054
667.007,2.054
667.650,2.055
668.428,2.054
669.070,2.054
669.849,2.055
670.488,2.055
671.275,2.055
671.912,2.054
672.691,2.054
673.329,2.055
674.122,2.055
674.755,2.056
675.542,2.056
676.174,2.056
676.958,2.056
677.601,2.056
678.465,2.057
679.104,2.056
679.803,2.056
680.440,2.056
681.224,2.056
681.850,2.056
682.644,2.057
683.276,2.057
684.060,2.057
684.695,2.057
685.479,2.056
686.121,2.057
686.906,2.057
687.545,2.058
688.314,2.058
688.963,2.058
689.747,2.057
690.385,2.058
691.168,2.058
691.889,2.058
692.585,2.058
693.302,2.058
694.001,2.059
694.728,2.058
695.425,2.058
696.068,2.059
696.847,2.059
697.476,2.059
698.261,2.058
698.904,2.058
699.682,2.059
700.321,2.059
701.106,2.059
701.821,2.058
702.530,2.059
703.157,2.059
703.941,2.060
704.591,2.060
705.359,2.060
706.094,2.060
706.792,2.060
707.427,2.060
708.212,2.059
708.851,2.060
709.629,2.060
710.272,2.060
711.045,2.060
711.691,2.060
712.473,2.060
713.106,2.060
713.884,2.061
714.522,2.061
715.304,2.060
715.946,2.061
716.724,2.061
717.362,2.061
718.145,2.061
718.782,2.061
719.576,2.061
720.211,2.061
720.996,2.061
721.627,2.061
722.417,2.061
723.055,2.061
723.837,2.062
724.477,2.062
725.257,2.062
725.897,2.062
726.669,2.061
727.309,2.061
728.099,2.062
728.725,2.062
729.520,2.062
730.159,2.062
730.927,2.062
731.578,2.062
732.360,2.063
732.987,2.062
733.781,2.063
734.413,2.062
735.201,2.063
735.840,2.062
736.621,2.064
737.261,2.063
738.037,2.063
738.677,2.063
739.462,2.063
740.102,2.063
740.874,2.064
741.517,2.063
742.291,2.063
742.931,2.063
743.715,2.063
744.358,2.064
745.132,2.064
745.771,2.063
746.558,2.063
747.197,2.064
747.985,2.063
748.620,2.063
749.402,2.064
750.036,2.065
750.820,2.064
751.456,2.064
752.241,2.065
752.877,2.064
753.667,2.064
754.299,2.064
755.076,2.065
755.725,2.064
756.507,2.064
757.145,2.064
757.923,2.064
758.566,2.064
759.334,2.065
759.986,2.064
760.761,2.065
761.398,2.064
762.177,2.064
762.825,2.065
763.598,2.065
764.241,2.061
765.024,2.065
765.668,2.065
766.447,2.065
767.083,2.065
767.866,2.065
768.505,2.064
769.283,2.065
769.925,2.064
770.710,2.065
771.338,2.065
772.121,2.065
772.758,2.065
773.551,2.065
774.189,2.065
774.971,2.065
775.611,2.065
776.394,2.065
777.021,2.065
777.800,2.066
778.454,2.066
779.222,2.066
779.874,2.066
780.653,2.066
781.283,2.066
782.071,2.066
782.709,2.066
783.488,2.066
784.129,2.066
784.907,2.067
785.545,2.066
786.335,2.066
786.962,2.066
787.757,2.066
788.394,2.066
789.177,2.066
789.814,2.066
790.593,2.066
791.226,2.066
792.009,2.067
792.648,2.066
793.436,2.066
794.071,2.067
794.850,2.066
795.494,2.066
796.276,2.067
796.913,2.066
797.693,2.067
798.330,2.066
799.108,2.067
799.750,2.066
800.533,2.067
801.170,2.067
801.963,2.066
802.601,2.066
803.379,2.067
804.021,2.066
804.799,2.066
805.441,2.067
806.221,2.067
806.857,2.067
807.631,2.067
808.283,2.067
809.061,2.068
809.704,2.067
810.483,2.067
811.114,2.066
811.891,2.067
812.535,2.067
813.314,2.067
813.951,2.067
814.734,2.067
815.371,2.067
816.155,2.068
816.796,2.067
817.574,2.067
818.212,2.067
818.995,2.067
819.638,2.067
820.423,2.068
821.065,2.067
821.839,2.068
822.477,2.067
823.255,2.067
823.896,2.067
824.690,2.068
825.319,2.068
826.096,2.067
826.739,2.068
827.518,2.067
828.155,2.068
828.937,2.068
829.591,2.067
830.370,2.067
830.997,2.068
831.791,2.068
832.429,2.067
833.207,2.068
833.848,2.068
834.627,2.067
835.271,2.068
836.045,2.067
836.683,2.068
837.473,2.067
838.114,2.068
838.892,2.067
839.531,2.067
840.308,2.068
840.949,2.068
841.731,2.068
842.374,2.068
843.141,2.068
843.784,2.068
844.567,2.067
845.209,2.068
845.986,2.068
846.625,2.068
847.412,2.068
848.054,2.068
848.833,2.068
849.472,2.068
850.255,2.068
850.891,2.068
851.664,2.067
852.306,2.067
853.085,2.068
853.730,2.067
854.517,2.068
855.151,2.068
855.939,2.068
856.565,2.068
857.357,2.068
857.988,2.067
858.770,2.068
859.415,2.068
860.191,2.069
860.838,2.069
861.609,2.068
862.255,2.068
863.042,2.068
863.672,2.068
864.459,2.068
865.090,2.068
865.876,2.068
866.517,2.069
867.298,2.068
867.933,2.068
868.719,2.068
869.359,2.068
870.141,2.068
870.771,2.068
871.551,2.068
872.197,2.068
872.984,2.069
873.624,2.068
874.406,2.068
875.037,2.068
875.817,2.068
876.458,2.068
877.234,2.068
877.886,2.068
878.662,2.068
879.303,2.068
880.085,2.068
880.725,2.068
881.501,2.068
882.147,2.068
882.925,2.068
883.560,2.068
884.347,2.068
884.982,2.068
885.765,2.068
886.395,2.069
887.186,2.068
887.827,2.068
888.609,2.068
889.246,2.068
890.028,2.069
890.667,2.068
891.445,2.068
892.086,2.068
892.870,2.068
893.509,2.068
894.293,2.069
894.928,2.069
895.709,2.068
896.338,2.068
897.120,2.068
897.764,2.068
898.543,2.068
899.185,2.068
899.962,2.068
900.605,2.068
901.389,2.069
902.031,2.068
902.814,2.068
903.451,2.068
904.234,2.068
904.871,2.068
905.650,2.068
906.282,2.068
907.075,2.068
907.703,2.069
908.487,2.068
909.123,2.068
909.917,2.067
910.550,2.068
911.334,2.068
911.965,2.067
912.746,2.068
913.382,2.067
914.174,2.068
914.809,2.068
915.593,2.068
916.238,2.067
917.006,2.068
917.653,2.068
918.436,2.069
919.073,2.068
919.851,2.068
920.494,2.067
921.272,2.068
921.909,2.068
922.693,2.068
923.330,2.067
924.108,2.068
924.750,2.067
925.530,2.067
926.167,2.068
926.960,2.068
927.587,2.068
928.382,2.068
929.019,2.068
929.803,2.068
930.440,2.068
931.220,2.068
931.853,2.068
932.641,2.068
933.282,2.067
934.053,2.068
934.693,2.067
935.485,2.068
936.116,2.068
936.902,2.068
937.538,2.068
938.319,2.067
938.955,2.068
939.747,2.068
940.378,2.067
941.158,2.068
941.804,2.067
942.586,2.068
943.305,2.067
944.003,2.068
944.639,2.068
945.422,2.068
946.057,2.068
946.849,2.067
947.484,2.068
948.255,2.068
948.901,2.068
949.677,2.068
950.319,2.068
951.110,2.068
951.746,2.067
952.522,2.067
953.167,2.067
953.939,2.067
954.575,2.068
955.362,2.067
956.004,2.067
956.786,2.067
957.416,2.067
958.207,2.068
958.839,2.068
959.630,2.068
960.265,2.068
961.052,2.067
961.688,2.067
962.459,2.067
963.105,2.068
963.882,2.067
964.522,2.067
965.304,2.067
965.951,2.067
966.724,2.067
967.371,2.067
968.142,2.067
968.784,2.068
969.565,2.066
970.202,2.067
970.989,2.067
971.629,2.067
972.411,2.068
973.042,2.068
973.828,2.066
974.476,2.067
975.256,2.067
975.895,2.067
976.676,2.067
977.316,2.067
978.087,2.067
978.728,2.067
979.504,2.067
980.151,2.067
980.937,2.067
981.576,2.067
982.358,2.068
982.993,2.067
983.766,2.067
984.419,2.067
985.198,2.067
985.840,2.067
986.619,2.067
987.257,2.067
988.028,2.066
988.672,2.067
989.450,2.067
990.091,2.067
990.869,2.066
991.507,2.067
992.290,2.067
992.932,2.066
993.712,2.067
994.349,2.067
995.132,2.066
995.771,2.067
996.551,2.067
997.194,2.066
997.972,2.066
998.617,2.066
999.395,2.066
1000.041,2.066
1000.820,2.067
1001.461,2.066
1002.245,2.066
1002.876,2.066
1003.655,2.067
1004.298,2.066
1005.079,2.066
1005.724,2.066
1006.493,2.066
1007.140,2.066
1007.925,2.066
1008.552,2.066
1009.335,2.067
1009.976,2.066
1010.756,2.066
1011.405,2.066
1012.184,2.066
1012.826,2.066
1013.604,2.067
1014.247,2.066
1015.024,2.066
1015.664,2.066
1016.438,2.066
1017.090,2.065
1017.859,2.066
1018.502,2.066
1019.285,2.066
1019.923,2.066
1020.702,2.065
1021.344,2.066
1022.128,2.067
1022.765,2.066
1023.549,2.066
1024.187,2.066
1024.963,2.066
1025.606,2.065
1026.393,2.066
1027.030,2.066
1027.813,2.066
1028.440,2.065
1029.220,2.065
1029.873,2.066
1030.640,2.066
1031.294,2.065
1032.071,2.065
1032.714,2.065
1033.486,2.066
1034.124,2.065
1034.908,2.065
1035.542,2.065
1036.329,2.065
1036.976,2.066
1037.750,2.065
1038.393,2.066
1039.170,2.065
1039.812,2.065
1040.590,2.065
1041.236,2.065
1042.017,2.066
1042.650,2.066
1043.429,2.066
1044.065,2.066
1044.855,2.065
1045.496,2.066
1046.268,2.064
1046.909,2.064
