room_temperature(K),298.150 
water_volume(mL),500.000 
cotton_mass(g),0.010 
combustible_mass(g),1.000 
Nickel_before_mass(g),0.008 
Nickel_after_mass(g),0.003 
time(s),Delta_T(K)
0.636,0.000
1.418,0.000
2.053,0.000
2.836,0.000
3.477,0.001
4.255,0.000
4.896,0.000
5.676,0.000
6.313,0.001
7.089,0.000
7.736,0.000
8.508,0.000
9.154,-0.001
9.936,0.000
10.571,0.000
11.348,0.000
12.001,-0.001
12.768,0.000
13.410,0.000
14.198,0.000
14.831,0.000
15.614,0.000
16.259,-0.001
17.038,0.000
17.680,0.000
18.462,0.000
19.101,0.000
19.884,-0.001
20.521,-0.001
21.301,-0.001
21.943,0.000
22.711,0.000
23.363,0.000
24.135,-0.001
24.777,-0.001
25.554,-0.001
26.193,-0.001
26.976,0.000
27.613,0.000
28.392,-0.001
29.032,-0.001
29.826,0.000
30.463,-0.001
31.246,-0.001
31.872,-0.001
32.664,-0.001
33.294,0.000
34.075,-0.001
34.717,-0.001
35.504,-0.001
36.144,-0.001
36.927,-0.001
37.564,0.000
38.334,-0.001
38.985,-0.001
39.766,-0.001
40.402,-0.001
41.186,-0.001
41.826,-0.002
42.603,-0.001
43.243,-0.001
44.025,0.000
44.657,-0.001
45.443,-0.001
46.086,-0.001
46.863,-0.001
47.504,-0.001
48.280,-0.002
48.927,-0.001
49.708,-0.001
50.343,-0.001
51.120,-0.001
51.766,-0.001
52.543,-0.001
53.179,0.000
53.960,-0.001
54.597,0.000
55.389,0.000
56.025,-0.001
56.811,-0.001
57.442,-0.001
58.219,-0.001
58.869,-0.001
59.639,-0.001
60.291,-0.001
61.068,-0.001
61.698,0.000
62.485,-0.001
63.121,-0.001
63.906,-0.001
64.543,-0.001
65.319,-0.001
65.965,-0.001
66.746,0.000
67.377,-0.001
68.169,-0.001
68.799,0.000
69.586,-0.001
70.227,-0.001
71.008,-0.001
71.639,-0.001
72.426,-0.001
73.067,-0.001
73.848,-0.001
74.482,-0.001
75.261,-0.001
75.909,-0.001
76.694,-0.001
77.325,-0.001
78.108,-0.001
78.753,-0.001
79.535,-0.001
80.162,0.000
80.940,-0.001
81.592,0.000
82.376,-0.001
83.003,-0.001
83.789,-0.001
84.427,-0.001
85.210,-0.001
85.848,0.000
86.626,-0.001
87.275,-0.001
88.054,-0.001
88.692,-0.002
89.473,-0.001
90.101,-0.001
90.895,-0.002
91.532,-0.001
92.316,-0.001
92.953,-0.001
93.734,-0.001
94.372,-0.001
95.144,-0.001
95.785,0.000
96.573,-0.002
97.213,-0.002
97.989,-0.001
98.626,-0.001
99.417,-0.001
100.056,-0.001
100.825,-0.001
101.467,-0.001
102.245,0.000
102.889,-0.001
103.678,-0.001
104.309,-0.001
105.088,-0.001
105.731,-0.002
106.506,-0.001
107.149,-0.001
107.930,-0.002
108.565,-0.001
109.359,0.000
110.000,-0.001
110.776,-0.001
111.414,-0.001
112.197,0.000
112.827,-0.001
113.614,-0.001
114.261,-0.001
115.037,-0.001
115.667,-0.001
116.455,-0.001
117.091,-0.001
117.878,-0.001
118.508,-0.001
119.294,-0.001
119.936,-0.002
120.720,-0.001
121.352,-0.001
122.134,-0.001
122.778,-0.001
123.560,-0.001
124.194,-0.001
124.979,-0.001
125.614,-0.001
126.400,-0.001
127.040,-0.001
127.822,-0.001
128.453,-0.001
129.237,-0.001
129.883,-0.001
130.664,-0.001
131.296,-0.001
132.077,0.000
132.718,-0.001
133.505,-0.001
134.133,-0.001
134.915,0.000
135.561,-0.001
136.344,-0.001
136.978,-0.001
137.752,-0.001
138.397,-0.001
139.179,-0.001
139.825,0.000
140.596,0.000
141.242,-0.001
142.018,-0.001
142.664,0.000
143.441,-0.001
144.074,-0.001
144.856,-0.001
145.506,-0.001
146.272,0.000
146.913,0.000
147.705,-0.001
148.341,0.000
149.117,0.000
149.764,0.000
150.534,-0.001
151.182,-0.001
151.961,-0.001
152.603,0.000
153.381,-0.001
154.017,-0.001
154.795,-0.001
155.437,-0.001
156.221,-0.001
156.860,-0.001
157.644,-0.001
158.280,-0.002
159.065,0.000
159.707,-0.001
160.484,-0.001
161.122,-0.001
161.904,-0.001
162.546,0.000
163.325,0.000
163.963,-0.001
164.747,0.000
165.383,0.000
166.156,-0.001
166.799,0.000
167.575,0.000
168.229,-0.001
168.997,0.000
169.639,-0.001
170.417,-0.001
171.056,-0.001
171.840,0.000
172.476,-0.001
173.271,-0.001
173.911,-0.001
174.679,0.000
175.320,0.000
176.098,-0.001
176.740,-0.001
177.518,0.000
178.157,-0.001
178.940,-0.001
179.582,-0.001
180.362,0.000
181.005,0.000
181.789,-0.001
182.426,-0.001
183.205,-0.001
183.838,0.000
184.630,-0.001
185.268,-0.001
186.052,-0.001
186.679,0.000
187.473,0.000
188.104,0.000
188.884,-0.001
189.521,0.000
190.300,0.000
190.942,0.001
191.729,0.001
192.367,0.002
193.156,0.003
193.795,0.007
194.576,0.008
195.203,0.008
195.992,0.012
196.626,0.013
197.410,0.015
198.053,0.017
198.831,0.020
199.468,0.023
200.252,0.028
200.890,0.030
201.670,0.037
202.311,0.040
203.091,0.045
203.729,0.052
204.505,0.060
205.148,0.065
205.927,0.070
206.569,0.073
207.352,0.080
207.990,0.084
208.769,0.090
209.404,0.095
210.199,0.102
210.837,0.107
211.603,0.117
212.246,0.120
213.025,0.129
213.678,0.135
214.445,0.142
215.097,0.149
215.865,0.160
216.516,0.165
217.298,0.180
217.925,0.187
218.716,0.199
219.351,0.204
220.128,0.212
220.774,0.217
221.549,0.232
222.185,0.244
222.976,0.257
223.612,0.266
224.401,0.276
225.037,0.281
225.813,0.289
226.445,0.294
227.231,0.311
227.873,0.316
228.651,0.326
229.288,0.331
230.082,0.339
230.709,0.346
231.503,0.357
232.141,0.366
232.914,0.377
233.556,0.382
234.339,0.392
234.982,0.399
235.753,0.416
236.391,0.426
237.177,0.448
237.819,0.456
238.597,0.468
239.230,0.473
240.015,0.479
240.652,0.483
241.429,0.491
242.078,0.499
242.857,0.511
243.496,0.518
244.276,0.531
244.921,0.536
245.698,0.551
246.335,0.561
247.121,0.578
247.762,0.585
248.533,0.591
249.175,0.595
249.957,0.598
250.603,0.601
251.378,0.606
252.020,0.606
252.801,0.611
253.438,0.616
254.224,0.625
254.865,0.628
255.647,0.636
256.275,0.638
257.053,0.645
257.691,0.648
258.483,0.656
259.122,0.658
259.905,0.665
260.542,0.668
261.315,0.678
261.953,0.683
262.736,0.690
263.378,0.693
264.154,0.698
264.792,0.700
265.580,0.705
266.217,0.706
266.996,0.710
267.633,0.711
268.421,0.715
269.058,0.718
269.837,0.721
270.479,0.725
271.257,0.728
271.895,0.728
272.681,0.731
273.317,0.735
274.109,0.741
274.750,0.741
275.518,0.745
276.161,0.746
276.940,0.750
277.581,0.752
278.360,0.755
278.999,0.755
279.781,0.762
280.418,0.765
281.198,0.772
281.839,0.775
282.622,0.780
283.260,0.782
284.048,0.782
284.690,0.785
285.468,0.787
286.107,0.788
286.890,0.792
287.526,0.793
288.312,0.795
288.950,0.797
289.726,0.800
290.357,0.802
291.151,0.803
291.777,0.803
292.571,0.807
293.209,0.810
293.978,0.813
294.620,0.813
295.398,0.817
296.042,0.818
296.820,0.820
297.473,0.825
298.240,0.828
298.888,0.828
299.667,0.830
300.304,0.832
301.088,0.835
301.725,0.837
302.503,0.838
303.145,0.840
303.934,0.843
304.562,0.843
305.340,0.845
305.983,0.847
306.762,0.848
307.414,0.848
308.186,0.852
308.823,0.853
309.610,0.855
310.250,0.857
311.027,0.860
311.668,0.862
312.455,0.863
313.085,0.863
313.867,0.867
314.510,0.868
315.289,0.870
315.934,0.870
316.711,0.872
317.356,0.875
318.135,0.875
318.761,0.875
319.548,0.878
320.188,0.880
320.971,0.882
321.611,0.883
322.397,0.885
323.033,0.885
323.815,0.887
324.450,0.888
325.226,0.892
325.867,0.892
326.653,0.895
327.294,0.893
328.070,0.898
328.716,0.898
329.487,0.900
330.136,0.900
330.913,0.903
331.554,0.905
332.333,0.907
332.972,0.907
333.754,0.908
334.386,0.910
335.166,0.912
335.808,0.912
336.586,0.915
337.240,0.915
338.008,0.917
338.650,0.917
339.435,0.920
340.073,0.920
340.861,0.924
341.498,0.924
342.281,0.924
342.908,0.925
343.702,0.927
344.339,0.927
345.117,0.930
345.760,0.929
346.537,0.930
347.176,0.932
347.958,0.934
348.599,0.934
349.376,0.935
350.017,0.937
350.797,0.937
351.428,0.939
352.220,0.942
352.850,0.942
353.632,0.944
354.279,0.944
355.059,0.945
355.701,0.947
356.473,0.947
357.113,0.949
357.895,0.949
358.541,0.950
359.323,0.950
359.953,0.952
360.739,0.952
361.370,0.954
362.151,0.955
362.793,0.955
363.580,0.957
364.210,0.959
365.002,0.959
365.633,0.960
366.425,0.962
367.056,0.962
367.834,0.964
368.471,0.964
369.261,0.965
369.898,0.965
370.683,0.969
371.324,0.970
372.103,0.970
372.741,0.970
373.524,0.970
374.152,0.972
374.946,0.974
375.582,0.974
376.355,0.975
376.998,0.974
377.776,0.977
378.424,0.977
379.201,0.979
379.838,0.980
380.619,0.982
381.257,0.982
382.037,0.982
382.673,0.982
383.465,0.984
384.092,0.985
384.878,0.985
385.525,0.987
386.309,0.987
386.936,0.989
387.720,0.990
388.364,0.990
389.140,0.992
389.782,0.992
390.560,0.994
391.203,0.994
391.982,0.994
392.623,0.995
393.402,0.997
394.047,0.999
394.829,0.999
395.466,1.000
396.250,0.999
396.876,1.000
397.655,1.002
398.307,1.000
399.086,1.004
399.728,1.004
400.506,1.005
401.150,1.007
401.917,1.007
402.570,1.007
403.339,1.007
403.982,1.009
404.765,1.009
405.402,1.010
406.187,1.012
406.830,1.012
407.604,1.012
408.242,1.014
409.026,1.014
409.664,1.015
410.442,1.015
411.091,1.017
411.870,1.017
412.507,1.017
413.286,1.020
413.928,1.019
414.703,1.020
415.340,1.020
416.129,1.022
416.767,1.022
417.545,1.022
418.188,1.024
418.967,1.024
419.609,1.025
420.387,1.025
421.022,1.027
421.801,1.027
422.438,1.027
423.222,1.029
423.860,1.029
424.655,1.030
425.281,1.032
426.067,1.030
426.706,1.034
427.484,1.034
428.127,1.032
428.906,1.032
429.544,1.034
430.329,1.035
430.975,1.035
431.751,1.035
432.387,1.037
433.163,1.037
433.810,1.037
434.593,1.037
435.231,1.037
436.007,1.040
436.644,1.040
437.435,1.042
438.074,1.042
438.854,1.042
439.495,1.044
440.278,1.045
440.917,1.044
441.696,1.045
442.322,1.045
443.116,1.047
443.743,1.047
444.529,1.049
445.167,1.049
445.950,1.049
446.592,1.049
447.371,1.050
448.009,1.050
448.793,1.052
449.435,1.052
450.215,1.054
450.850,1.055
451.638,1.054
452.276,1.055
453.044,1.055
453.686,1.055
454.467,1.057
455.105,1.057
455.888,1.057
456.524,1.059
457.319,1.059
457.956,1.059
458.740,1.060
459.376,1.060
460.155,1.062
460.796,1.060
461.573,1.062
462.212,1.064
462.996,1.062
463.632,1.064
464.416,1.065
465.054,1.065
465.837,1.065
466.473,1.065
467.253,1.067
467.892,1.067
468.678,1.069
469.313,1.067
470.098,1.069
470.739,1.069
471.510,1.070
472.161,1.070
472.932,1.070
473.578,1.070
474.363,1.072
475.003,1.072
475.768,1.072
476.415,1.074
477.196,1.074
477.837,1.074
478.618,1.075
479.259,1.074
480.030,1.075
480.676,1.077
481.462,1.077
482.103,1.077
482.869,1.077
483.523,1.077
484.294,1.079
484.935,1.080
485.712,1.080
486.363,1.079
487.140,1.080
487.781,1.082
488.552,1.080
489.192,1.080
489.984,1.082
490.615,1.082
491.401,1.084
492.042,1.084
492.824,1.084
493.459,1.084
494.241,1.086
494.882,1.086
495.662,1.086
496.293,1.086
497.085,1.087
497.715,1.086
498.493,1.087
499.135,1.089
499.917,1.087
500.552,1.089
501.333,1.089
501.984,1.087
502.755,1.091
503.402,1.091
504.182,1.091
504.812,1.091
505.605,1.092
506.240,1.092
507.016,1.092
507.662,1.094
508.433,1.094
509.087,1.092
509.860,1.094
510.496,1.096
511.288,1.094
511.914,1.096
512.703,1.097
513.340,1.096
514.118,1.096
514.760,1.097
515.538,1.099
516.176,1.099
516.960,1.099
517.602,1.099
518.381,1.101
519.015,1.101
519.804,1.099
520.441,1.101
521.220,1.101
521.867,1.101
522.640,1.102
523.279,1.102
524.063,1.102
524.706,1.104
525.484,1.104
526.125,1.104
526.903,1.106
527.546,1.106
528.329,1.104
528.962,1.104
529.750,1.107
530.386,1.107
531.167,1.106
531.802,1.107
532.580,1.107
533.220,1.107
534.002,1.107
534.640,1.107
535.431,1.109
536.066,1.107
536.849,1.109
537.485,1.109
538.260,1.111
538.901,1.109
539.681,1.111
540.327,1.111
541.103,1.111
541.745,1.112
542.521,1.112
543.171,1.112
543.953,1.112
544.588,1.114
545.370,1.114
546.009,1.114
546.791,1.114
547.427,1.114
548.203,1.114
548.844,1.116
549.633,1.116
550.264,1.117
551.040,1.116
551.691,1.117
552.468,1.117
553.112,1.117
553.893,1.117
554.528,1.117
555.305,1.117
555.952,1.119
556.732,1.119
557.368,1.119
558.145,1.117
558.795,1.119
559.564,1.119
560.216,1.119
560.982,1.119
561.622,1.121
562.409,1.122
563.045,1.122
563.831,1.122
564.473,1.122
565.252,1.122
565.895,1.122
566.673,1.122
567.315,1.122
568.089,1.122
568.727,1.124
569.505,1.124
570.149,1.124
570.926,1.124
571.563,1.126
572.347,1.126
572.990,1.126
573.768,1.126
574.418,1.127
575.186,1.126
575.823,1.126
576.607,1.127
577.248,1.127
578.026,1.127
578.664,1.127
579.446,1.129
580.090,1.129
580.868,1.129
581.505,1.129
582.289,1.129
582.927,1.129
583.710,1.131
584.357,1.131
585.136,1.131
585.774,1.132
586.549,1.132
587.196,1.132
587.974,1.134
588.609,1.132
589.395,1.132
590.034,1.132
590.819,1.134
591.456,1.134
592.233,1.134
592.879,1.134
593.658,1.134
594.296,1.134
595.073,1.134
595.714,1.134
596.490,1.134
597.126,1.134
597.908,1.136
598.559,1.134
599.336,1.137
599.977,1.136
600.757,1.136
601.393,1.136
602.170,1.136
602.813,1.137
603.595,1.137
604.229,1.137
605.009,1.137
605.651,1.137
606.433,1.137
607.071,1.139
607.849,1.139
608.490,1.139
609.276,1.139
609.914,1.139
610.697,1.141
611.334,1.141
612.119,1.141
612.761,1.141
613.539,1.139
614.183,1.141
614.962,1.141
615.593,1.141
616.373,1.142
617.012,1.142
617.795,1.141
618.432,1.141
619.215,1.142
619.857,1.142
620.634,1.144
621.272,1.142
622.051,1.142
622.693,1.142
623.486,1.144
624.125,1.144
624.904,1.144
625.541,1.142
626.319,1.144
626.962,1.146
627.741,1.146
628.377,1.146
629.167,1.146
629.796,1.146
630.575,1.146
631.213,1.146
631.997,1.147
632.634,1.146
633.428,1.146
634.055,1.146
634.838,1.147
635.475,1.147
636.260,1.147
636.902,1.149
637.686,1.147
638.323,1.147
639.107,1.147
639.745,1.149
640.523,1.149
641.164,1.149
641.936,1.147
642.583,1.149
643.359,1.149
643.999,1.149
644.783,1.149
645.414,1.152
646.204,1.151
646.849,1.149
647.628,1.149
648.267,1.151
649.045,1.152
649.689,1.152
650.466,1.152
651.109,1.151
651.878,1.152
652.530,1.152
653.298,1.152
653.936,1.152
654.718,1.152
655.360,1.152
656.139,1.154
656.784,1.152
657.567,1.154
658.204,1.154
658.984,1.156
659.624,1.154
660.408,1.152
661.046,1.154
661.826,1.154
662.468,1.154
663.248,1.156
663.885,1.156
664.673,1.156
665.310,1.156
666.089,1.156
666.731,1.156
667.514,1.156
668.152,1.157
668.930,1.156
669.562,1.156
670.346,1.156
670.985,1.159
671.772,1.157
672.413,1.157
673.184,1.157
673.827,1.159
674.607,1.157
675.245,1.159
676.031,1.157
676.671,1.159
677.452,1.159
678.088,1.159
678.874,1.161
679.514,1.161
680.290,1.159
680.934,1.159
681.710,1.159
682.351,1.159
683.127,1.159
683.766,1.161
684.550,1.161
685.184,1.161
685.975,1.159
686.605,1.159
687.392,1.161
688.034,1.161
688.802,1.161
689.448,1.161
690.229,1.161
690.874,1.162
691.656,1.161
692.297,1.162
693.062,1.161
693.719,1.162
694.509,1.162
695.133,1.164
695.915,1.162
696.562,1.162
697.337,1.162
697.977,1.162
698.759,1.162
699.401,1.164
700.182,1.164
700.823,1.166
701.610,1.164
702.250,1.164
703.027,1.164
703.668,1.164
704.437,1.164
705.084,1.166
705.864,1.164
706.504,1.166
707.288,1.166
707.926,1.166
708.709,1.166
709.344,1.166
710.123,1.166
710.761,1.167
711.543,1.166
712.181,1.166
712.959,1.167
713.601,1.167
714.379,1.169
715.017,1.167
715.810,1.167
716.436,1.167
717.231,1.167
717.869,1.167
718.641,1.169
719.278,1.167
720.073,1.167
720.705,1.167
721.488,1.171
722.127,1.169
722.905,1.169
723.551,1.167
724.328,1.169
724.966,1.169
725.749,1.169
726.385,1.169
727.165,1.169
727.807,1.169
728.584,1.169
729.222,1.171
730.001,1.171
730.642,1.169
731.421,1.171
732.059,1.169
732.847,1.171
733.483,1.169
734.262,1.171
734.905,1.171
735.689,1.171
736.326,1.171
737.109,1.171
737.752,1.172
738.530,1.171
739.168,1.171
739.945,1.171
740.587,1.172
741.375,1.171
742.012,1.172
742.794,1.172
743.425,1.172
744.216,1.172
744.846,1.174
745.629,1.171
746.270,1.174
747.051,1.172
747.692,1.172
748.463,1.174
749.104,1.174
749.883,1.174
750.524,1.172
751.317,1.174
751.947,1.172
752.738,1.174
753.373,1.174
754.155,1.174
754.787,1.174
755.564,1.174
756.204,1.174
756.996,1.174
757.627,1.174
758.413,1.176
759.049,1.176
759.836,1.176
760.471,1.176
761.252,1.176
761.893,1.176
762.669,1.174
763.305,1.176
764.102,1.176
764.729,1.177
765.510,1.176
766.145,1.177
766.927,1.176
767.578,1.176
768.359,1.176
768.995,1.177
769.772,1.177
770.407,1.177
771.188,1.177
771.829,1.177
772.615,1.177
773.256,1.177
774.033,1.177
774.680,1.177
775.452,1.177
776.100,1.177
776.877,1.177
777.519,1.179
778.287,1.177
778.941,1.177
779.709,1.179
780.347,1.179
781.141,1.177
781.768,1.177
782.562,1.177
783.190,1.179
783.969,1.179
784.618,1.179
785.396,1.179
786.035,1.179
786.818,1.181
787.455,1.179
788.233,1.179
788.873,1.179
789.652,1.179
790.290,1.179
791.084,1.179
791.711,1.179
792.504,1.179
793.143,1.179
793.911,1.179
794.560,1.181
795.345,1.181
795.972,1.181
796.765,1.181
797.403,1.181
798.181,1.179
798.823,1.181
799.593,1.181
800.237,1.181
801.020,1.181
801.658,1.181
802.440,1.181
803.073,1.182
803.866,1.181
804.500,1.181
805.285,1.181
805.922,1.182
806.705,1.181
807.340,1.181
808.121,1.181
808.757,1.181
809.535,1.182
810.186,1.182
810.952,1.182
811.600,1.182
812.382,1.184
813.017,1.182
813.798,1.182
814.444,1.182
815.225,1.182
815.867,1.182
816.637,1.182
817.283,1.184
818.065,1.182
818.707,1.182
819.483,1.182
820.118,1.182
820.900,1.182
821.542,1.184
822.319,1.182
822.957,1.184
823.749,1.184
824.374,1.184
825.157,1.184
825.798,1.184
826.580,1.184
827.221,1.186
827.997,1.184
828.648,1.182
829.429,1.184
830.054,1.184
830.836,1.186
831.477,1.186
832.269,1.186
832.910,1.186
833.691,1.184
834.321,1.186
835.103,1.186
835.750,1.184
836.526,1.184
837.160,1.186
837.951,1.184
838.586,1.186
839.368,1.186
840.003,1.187
840.779,1.184
841.416,1.186
842.208,1.186
842.838,1.186
843.620,1.186
844.261,1.186
845.042,1.186
845.690,1.186
846.467,1.186
847.108,1.186
847.880,1.186
848.526,1.186
849.302,1.186
849.946,1.187
850.723,1.186
851.359,1.186
852.141,1.187
852.787,1.187
853.560,1.187
854.200,1.186
854.991,1.187
855.628,1.187
856.412,1.187
857.042,1.187
857.823,1.187
858.469,1.187
859.250,1.187
859.880,1.189
860.671,1.187
861.312,1.187
862.088,1.187
862.729,1.187
863.501,1.187
864.141,1.187
864.922,1.189
865.568,1.189
866.355,1.187
866.994,1.189
867.761,1.187
868.403,1.187
869.183,1.187
869.830,1.187
870.613,1.187
871.249,1.189
872.029,1.187
872.669,1.189
873.452,1.189
874.090,1.189
874.869,1.189
875.510,1.189
876.289,1.189
876.927,1.189
877.711,1.189
878.347,1.189
879.125,1.191
879.763,1.191
880.545,1.191
881.184,1.191
881.979,1.189
882.604,1.189
883.398,1.191
884.037,1.191
884.815,1.189
885.456,1.191
886.235,1.189
886.873,1.191
887.656,1.189
888.293,1.192
889.072,1.191
889.715,1.191
890.492,1.191
891.131,1.189
891.909,1.189
892.550,1.191
893.329,1.191
893.969,1.191
894.746,1.191
895.389,1.191
896.168,1.191
896.810,1.191
897.587,1.189
898.240,1.191
899.018,1.191
899.653,1.192
900.430,1.192
901.069,1.191
901.851,1.191
902.488,1.191
903.273,1.192
903.915,1.191
904.701,1.191
905.338,1.191
906.116,1.192
906.760,1.192
907.540,1.191
908.171,1.191
908.957,1.192
909.588,1.191
910.380,1.191
911.020,1.192
911.802,1.192
912.433,1.191
913.214,1.191
913.855,1.192
914.640,1.192
915.273,1.194
916.058,1.191
916.700,1.192
917.477,1.192
918.117,1.192
918.902,1.194
919.539,1.194
920.323,1.192
920.960,1.192
921.743,1.192
922.369,1.192
923.163,1.192
923.801,1.192
924.571,1.192
925.214,1.194
925.993,1.194
926.630,1.192
927.412,1.194
928.049,1.194
928.843,1.192
929.483,1.192
930.261,1.192
930.899,1.192
931.670,1.192
932.313,1.192
933.095,1.194
933.825,1.192
934.519,1.194
935.157,1.194
935.943,1.194
936.584,1.194
937.363,1.194
938.001,1.192
938.779,1.192
939.420,1.192
940.198,1.194
940.835,1.194
941.618,1.194
942.256,1.194
943.041,1.196
943.680,1.194
944.466,1.192
945.105,1.194
945.889,1.194
946.513,1.194
947.300,1.194
947.944,1.194
948.717,1.194
949.353,1.194
950.149,1.194
950.775,1.194
951.569,1.194
952.207,1.194
952.982,1.194
953.628,1.194
954.407,1.194
955.043,1.196
955.826,1.196
956.468,1.194
957.248,1.194
957.879,1.196
958.659,1.194
959.296,1.194
960.075,1.196
960.722,1.196
961.500,1.196
962.143,1.196
962.926,1.194
963.569,1.196
964.349,1.196
964.980,1.196
965.759,1.196
966.402,1.196
967.185,1.194
967.823,1.196
968.600,1.196
969.238,1.196
970.027,1.197
970.665,1.196
971.449,1.196
972.077,1.197
972.862,1.196
973.498,1.196
974.282,1.196
974.919,1.194
975.704,1.196
976.341,1.196
977.130,1.196
977.768,1.196
978.552,1.196
979.179,1.196
979.964,1.196
980.606,1.196
981.387,1.196
982.022,1.196
982.809,1.197
983.445,1.196
984.221,1.196
984.860,1.196
985.647,1.197
986.278,1.197
987.061,1.196
987.702,1.196
988.495,1.197
989.119,1.197
989.902,1.196
990.548,1.196
991.323,1.197
991.960,1.196
992.751,1.197
993.390,1.196
994.168,1.197
994.807,1.197
995.589,1.197
996.227,1.196
997.007,1.197
997.649,1.197
998.427,1.197
999.066,1.199
999.843,1.197
1000.484,1.197
1001.263,1.197
1001.906,1.197
1002.689,1.199
1003.326,1.197
1004.105,1.197
1004.756,1.197
1005.522,1.197
1006.161,1.197
1006.952,1.197
1007.584,1.197
1008.370,1.197
1009.009,1.196
1009.791,1.197
1010.429,1.196
1011.208,1.197
1011.850,1.197
1012.634,1.196
1013.272,1.196
1014.050,1.199
1014.685,1.197
1015.478,1.199
1016.117,1.199
1016.888,1.197
1017.535,1.197
1018.304,1.197
1018.946,1.199
1019.730,1.197
1020.368,1.197
1021.147,1.197
1021.789,1.197
1022.567,1.197
1023.209,1.196
1023.993,1.197
1024.623,1.199
1025.417,1.197
1026.050,1.197
1026.828,1.199
1027.471,1.199
1028.250,1.199
1028.892,1.197
1029.675,1.199
1030.312,1.197
1031.097,1.199
1031.730,1.199
1032.513,1.199
1033.156,1.199
1033.935,1.199
1034.565,1.197
1035.359,1.199
1035.986,1.199
1036.781,1.201
1037.407,1.199
1038.191,1.197
1038.829,1.199
1039.612,1.197
1040.254,1.199
1041.033,1.199
1041.671,1.199
1042.453,1.199
1043.093,1.199
1043.873,1.197
1044.513,1.199
1045.297,1.199
1045.939,1.199
1046.718,1.197
1047.359,1.199
1048.143,1.199
1048.771,1.201
1049.563,1.199
1050.201,1.199
1050.971,1.199
1051.622,1.201
1052.404,1.199
1053.028,1.199
1053.812,1.199
1054.454,1.197
1055.233,1.201
1055.875,1.201
1056.659,1.201
1057.295,1.201
1058.075,1.201
1058.722,1.201
1059.499,1.201
1060.137,1.199
1060.915,1.199
1061.562,1.199
1062.341,1.201
1062.969,1.201
1063.762,1.201
1064.405,1.201
1065.174,1.199
1065.816,1.201
1066.593,1.199
1067.244,1.201
1068.021,1.199
1068.665,1.199
1069.437,1.199
1070.084,1.199
1070.860,1.201
1071.504,1.199
1072.282,1.199
1072.921,1.199
1073.705,1.199
1074.345,1.201
1075.127,1.201
1075.757,1.201
1076.535,1.201
1077.172,1.199
1077.958,1.199
1078.604,1.201
1079.385,1.201
1080.020,1.199
1080.803,1.201
1081.433,1.201
1082.225,1.199
1082.861,1.201
1083.634,1.201
1084.275,1.201
1085.056,1.199
1085.698,1.201
1086.475,1.201
1087.115,1.202
1087.896,1.201
1088.543,1.199
1089.325,1.201
1089.956,1.201
1090.748,1.201
1091.378,1.201
1092.159,1.201
1092.800,1.201
1093.586,1.201
1094.227,1.201
1094.998,1.201
1095.645,1.201
1096.429,1.201
1097.065,1.201
1097.847,1.201
1098.482,1.201
1099.259,1.201
1099.908,1.199
1100.687,1.201
1101.328,1.201
1102.100,1.201
1102.742,1.201
1103.528,1.201
1104.167,1.201
